# Optical absorption spectrum of Program fragment delivered error ``Can't call method "sample_" on an undefined value at abs.template line 1.'':YLF (Ho:LiYF4)
# assuming unity concentration per meter.  This data was part of the NASA 
# Laser Spectra Database found on the web until December of 2005 which
# was created by Pat Cross working at NASA Langley Research Center, Internal
# Operations Group, Aerospace Electronics Systems Division, Remote Sensing.
#
# The spectra was collected by BMW on 27 April 1993 and was 
# annotated on 27 April 1993.  The sample name was "" was a 4.9200
# long piece of :.   
# The incident light was unpolarized.
#
# Spectra were recorded from 435 to 495nm
# every 0.1nm at room temperature.
#
# FILE NAME ON PC = BR259.SP NO_POINTS = 601. pts DATA_INTV = .000100 æm MIN_LAMBDA = .435000 æm MIN_DATA = .34610 MAX_LAMBDA = .495000 æm MAX_DATA = .90600 SCANSPEED = 15.000000 NM/MIN SLITWIDTH= .20000 NM RESP TIME = .5 sec SENSITIVITY = 5 DATE=93/04/27 OSU SAMPLE--CONC CORRECTED .44%.
#
##Wavelength (nm)	Absorbance (/meter) 
435	96
435.1	215
435.2	102
435.3	14
435.4	297
435.5	220
435.6	235
435.7	66
435.8	323
435.9	313
436	158
436.1	138
436.2	473
436.3	266
436.4	354
436.5	473
436.6	406
436.7	1
436.8	452
436.9	230
437	313
437.1	587
437.2	71
437.3	1
437.4	499
437.5	395
437.6	35
437.7	576
437.8	215
437.9	210
438	107
438.1	390
438.2	561
438.3	169
438.4	282
438.5	431
438.6	323
438.7	660
438.8	654
438.9	225
439	582
439.1	946
439.2	691
439.3	899
439.4	978
439.5	432
439.6	577
439.7	884
439.8	936
439.9	1103
440	1398
440.1	1025
440.2	1098
440.3	1467
440.4	1203
440.5	1093
440.6	1477
440.7	1298
440.8	1245
440.9	1198
441	1224
441.1	1062
441.2	1182
441.3	1035
441.4	1599
441.5	1219
441.6	1409
441.7	1314
441.8	1156
441.9	1293
442	1700
442.1	1499
442.2	1261
442.3	1483
442.4	1272
442.5	1887
442.6	1525
442.7	1956
442.8	1727
442.9	1769
443	1860
443.1	1520
443.2	1594
443.3	1557
443.4	1716
443.5	1817
443.6	1828
443.7	2010
443.8	2058
443.9	1967
444	2133
444.1	2396
444.2	2814
444.3	2299
444.4	2375
444.5	2402
444.6	2624
444.7	3175
444.8	3555
444.9	4016
445	4760
445.1	5631
445.2	6578
445.3	7611
445.4	7945
445.5	8213
445.6	8115
445.7	9197
445.8	10503
445.9	11274
446	11104
446.1	10413
446.2	10240
446.3	11163
446.4	11999
446.5	15181
446.6	19216
446.7	22100
446.8	21094
446.9	17494
447	14015
447.1	10832
447.2	8836
447.3	6976
447.4	6313
447.5	6325
447.6	6809
447.7	8299
447.8	9775
447.9	11477
448	12986
448.1	12326
448.2	10612
448.3	8904
448.4	8379
448.5	7927
448.6	7769
448.7	7551
448.8	8293
448.9	8699
449	8699
449.1	7672
449.2	7029
449.3	7029
449.4	6994
449.5	7539
449.6	7988
449.7	8935
449.8	9103
449.9	8496
450	7957
450.1	7745
450.2	8079
450.3	8354
450.4	8613
450.5	9763
450.6	11524
450.7	12628
450.8	13939
450.9	15453
451	15884
451.1	16051
451.2	16393
451.3	18180
451.4	20925
451.5	23904
451.6	23272
451.7	19787
451.8	17382
451.9	17203
452	18653
452.1	19873
452.2	20174
452.3	19575
452.4	19693
452.5	21509
452.6	27309
452.7	36956
452.8	44238
452.9	40153
453	30458
453.1	20812
453.2	13690
453.3	10587
453.4	8422
453.5	7077
453.6	6366
453.7	5805
453.8	5742
453.9	5464
454	5753
454.1	6155
454.2	6584
454.3	6940
454.4	6579
454.5	5974
454.6	5689
454.7	4925
454.8	4472
454.9	4489
455	4112
455.1	3833
455.2	3805
455.3	3683
455.4	3445
455.5	3577
455.6	3236
455.7	3016
455.8	3093
455.9	2902
456	2863
456.1	2684
456.2	2804
456.3	2836
456.4	2657
456.5	2457
456.6	2749
456.7	3120
456.8	4039
456.9	4954
457	6667
457.1	8392
457.2	10400
457.3	12006
457.4	11774
457.5	10716
457.6	9580
457.7	8019
457.8	6887
457.9	6167
458	5858
458.1	5257
458.2	4275
458.3	2989
458.4	2559
458.5	2295
458.6	1749
458.7	1600
458.8	1320
458.9	1331
459	1173
459.1	1110
459.2	1089
459.3	812
459.4	911
459.5	760
459.6	598
459.7	827
459.8	650
459.9	885
460	604
460.1	495
460.2	557
460.3	479
460.4	479
460.5	666
460.6	702
460.7	428
460.8	500
460.9	345
461	692
461.1	376
461.2	433
461.3	640
461.4	417
461.5	536
461.6	257
461.7	505
461.8	417
461.9	583
462	386
462.1	583
462.2	552
462.3	386
462.4	438
462.5	355
462.6	423
462.7	407
462.8	417
462.9	376
463	361
463.1	309
463.2	335
463.3	196
463.4	294
463.5	459
463.6	371
463.7	459
463.8	371
463.9	361
464	547
464.1	433
464.2	294
464.3	433
464.4	568
464.5	505
464.6	454
464.7	454
464.8	526
464.9	500
465	963
465.1	911
465.2	1210
465.3	1263
465.4	1415
465.5	1458
465.6	1654
465.7	1813
465.8	1781
465.9	1808
466	1957
466.1	1920
466.2	1696
466.3	1601
466.4	1776
466.5	2043
466.6	2102
466.7	2086
466.8	1947
466.9	1883
467	2473
467.1	2555
467.2	3094
467.3	3170
467.4	3319
467.5	4247
467.6	4704
467.7	4337
467.8	3473
467.9	2908
468	3110
468.1	4118
468.2	3501
468.3	2301
468.4	1856
468.5	1601
468.6	1899
468.7	2226
468.8	1968
468.9	1511
469	1126
469.1	1037
469.2	953
469.3	885
469.4	625
469.5	745
469.6	739
469.7	609
469.8	428
469.9	672
470	812
470.1	703
470.2	511
470.3	573
470.4	734
470.5	672
470.6	771
470.7	922
470.8	1074
470.9	1074
471	1137
471.1	1516
471.2	1649
471.3	1771
471.4	2134
471.5	2479
471.6	2843
471.7	4124
471.8	6180
471.9	9713
472	12683
472.1	12798
472.2	11269
472.3	8147
472.4	5847
472.5	4784
472.6	3734
472.7	3518
472.8	3039
472.9	2718
473	2990
473.1	3545
473.2	3878
473.3	4371
473.4	4665
473.5	5115
473.6	5149
473.7	5115
473.8	4490
473.9	4007
474	3817
474.1	3912
474.2	3973
474.3	4203
474.4	3995
474.5	3817
474.6	3094
474.7	2974
474.8	2571
474.9	1926
475	1979
475.1	1974
475.2	1835
475.3	1601
475.4	1585
475.5	1442
475.6	1427
475.7	1474
475.8	1862
475.9	1448
476	1147
476.1	1321
476.2	1168
476.3	1163
476.4	980
476.5	766
476.6	839
476.7	901
476.8	797
476.9	657
477	641
477.1	745
477.2	917
477.3	657
477.4	907
477.5	933
477.6	724
477.7	802
477.8	745
477.9	672
478	1022
478.1	1326
478.2	1406
478.3	1899
478.4	1915
478.5	2033
478.6	1793
478.7	1755
478.8	1809
478.9	1708
479	2033
479.1	2539
479.2	2783
479.3	2539
479.4	2707
479.5	1905
479.6	2087
479.7	1782
479.8	1559
479.9	1873
480	1548
480.1	1676
480.2	1835
480.3	1803
480.4	1980
480.5	1782
480.6	1819
480.7	1448
480.8	1327
480.9	1522
481	1379
481.1	1628
481.2	1400
481.3	1448
481.4	1385
481.5	1772
481.6	1926
481.7	1490
481.8	1258
481.9	1485
482	1660
482.1	1820
482.2	1788
482.3	1862
482.4	2119
482.5	2702
482.6	3188
482.7	4767
482.8	6527
482.9	9588
483	11796
483.1	10957
483.2	8442
483.3	5807
483.4	5316
483.5	4881
483.6	5310
483.7	7157
483.8	8732
483.9	8819
484	7571
484.1	5685
484.2	4841
484.3	4405
484.4	4007
484.5	3452
484.6	2631
484.7	2920
484.8	3105
484.9	2496
485	2108
485.1	1862
485.2	2108
485.3	2637
485.4	3133
485.5	5144
485.6	8387
485.7	14871
485.8	22326
485.9	24441
486	18548
486.1	12101
486.2	8142
486.3	5929
486.4	4473
486.5	3684
486.6	3331
486.7	3111
486.8	2822
486.9	2724
487	2740
487.1	2621
487.2	2702
487.3	3089
487.4	3336
487.5	3413
487.6	3718
487.7	4558
487.8	5633
487.9	6052
488	6474
488.1	5912
488.2	4564
488.3	4013
488.4	3480
488.5	2718
488.6	2280
488.7	1751
488.8	1369
488.9	1353
489	1206
489.1	1001
489.2	876
489.3	1028
489.4	1069
489.5	907
489.6	553
489.7	507
489.8	834
489.9	865
490	824
490.1	626
490.2	636
490.3	839
490.4	1174
490.5	1549
490.6	1745
490.7	2194
490.8	2404
490.9	2626
491	2189
491.1	2168
491.2	1682
491.3	1512
491.4	1248
491.5	1038
491.6	949
491.7	621
491.8	735
491.9	699
492	429
492.1	445
492.2	497
492.3	182
492.4	331
492.5	290
492.6	264
492.7	182
492.8	130
492.9	259
493	187
493.1	59
493.2	1
493.3	79
493.4	208
493.5	218
493.6	151
493.7	244
493.8	1
493.9	238
494	223
494.1	218
494.2	115
494.3	2
494.4	95
494.5	151
494.6	79
494.7	202
494.8	1
494.9	1
495	213
