# Optical absorption spectrum of Program fragment delivered error ``Can't call method "sample_" on an undefined value at abs.template line 1.'':YSAG (Ho:Y3Sc2Al3O12)
# assuming unity concentration per meter.  This data was part of the NASA 
# Laser Spectra Database found on the web until December of 2005 which
# was created by Pat Cross working at NASA Langley Research Center, Internal
# Operations Group, Aerospace Electronics Systems Division, Remote Sensing.
#
# The spectra was collected by BMW on 17 February 1993 and was 
# annotated on 21 February 1993.  The sample name was "" was a 10.500
# long piece of :.   
# The incident light was unpolarized.
#
# Spectra were recorded from 300 to 375nm
# every 0.1nm at room temperature.
#
# FILE NAME ON PC = YSAG7.SP NO_POINTS = 751. pts DATA_INTV = .000100 æm MIN_LAMBDA = .300000 æm MIN_DATA = .12610 MAX_LAMBDA = .375000 æm MAX_DATA = .37620 SCANSPEED = 15.000000 NM/MIN SLITWIDTH= .00000 æm RESP TIME = .5 sec SENSITIVITY = 5 DATE=93/02/17 16:26:36 93/02/17 YSAG7.
#
##Wavelength (nm)	Absorbance (/meter) 
300	7818
300.1	7618
300.2	7406
300.3	7864
300.4	7575
300.5	7600
300.6	7478
300.7	7356
300.8	7062
300.9	7377
301	6898
301.1	6966
301.2	7350
301.3	7462
301.4	6984
301.5	6518
301.6	6598
301.7	6734
301.8	7168
301.9	6590
302	6559
302.1	6310
302.2	6362
302.3	6550
302.4	6303
302.5	6192
302.6	6379
302.7	5909
302.8	6347
302.9	6170
303	6328
303.1	5796
303.2	5978
303.3	6320
303.4	5830
303.5	6209
303.6	6154
303.7	5825
303.8	5927
303.9	5399
304	5385
304.1	5498
304.2	5496
304.3	5445
304.4	4970
304.5	5180
304.6	5278
304.7	5030
304.8	4882
304.9	4833
305	4942
305.1	4700
305.2	4735
305.3	5123
305.4	4485
305.5	4603
305.6	4662
305.7	4250
305.8	4579
305.9	5191
306	4936
306.1	4555
306.2	4756
306.3	4649
306.4	4183
306.5	4356
306.6	4403
306.7	4542
306.8	4218
306.9	4519
307	4207
307.1	3667
307.2	4495
307.3	4588
307.4	4050
307.5	4084
307.6	3861
307.7	3906
307.8	3862
307.9	3818
308	3490
308.1	4143
308.2	3854
308.3	3943
308.4	3635
308.5	3409
308.6	3196
308.7	3736
308.8	3380
308.9	3749
309	2950
309.1	3214
309.2	3514
309.3	2675
309.4	2946
309.5	3083
309.6	3231
309.7	2992
309.8	2777
309.9	2718
310	3247
310.1	2989
310.2	2949
310.3	3304
310.4	2891
310.5	2780
310.6	3079
310.7	2693
310.8	2564
310.9	3022
311	2231
311.1	2431
311.2	2753
311.3	2376
311.4	2260
311.5	2658
311.6	2080
311.7	2044
311.8	2664
311.9	2321
312	2061
312.1	2384
312.2	2192
312.3	2291
312.4	2119
312.5	2325
312.6	2230
312.7	2194
312.8	2110
312.9	2218
313	2144
313.1	2213
313.2	1742
313.3	2037
313.4	1983
313.5	2482
313.6	2016
313.7	1850
313.8	1501
313.9	1799
314	2102
314.1	2066
314.2	1522
314.3	1155
314.4	1656
314.5	1386
314.6	1498
314.7	1583
314.8	1359
314.9	1345
315	1601
315.1	1612
315.2	1973
315.3	1727
315.4	1585
315.5	1570
315.6	1031
315.7	1175
315.8	881
315.9	1076
316	1756
316.1	1039
316.2	1617
316.3	1353
316.4	884
316.5	1218
316.6	1397
316.7	1155
316.8	1359
316.9	1336
317	1078
317.1	671
317.2	1539
317.3	1217
317.4	894
317.5	804
317.6	722
317.7	1135
317.8	1320
317.9	868
318	1257
318.1	1011
318.2	619
318.3	781
318.4	726
318.5	1024
318.6	476
318.7	896
318.8	492
318.9	512
319	615
319.1	884
319.2	1183
319.3	1245
319.4	1138
319.5	906
319.6	1272
319.7	1275
319.8	1058
319.9	1137
320	973
320.1	1110
320.2	1105
320.3	1074
320.4	1296
320.5	1198
320.6	1050
320.7	954
320.8	1040
320.9	1043
321	857
321.1	730
321.2	1094
321.3	1007
321.4	773
321.5	1005
321.6	845
321.7	954
321.8	1031
321.9	936
322	785
322.1	684
322.2	1011
322.3	916
322.4	887
322.5	538
322.6	677
322.7	577
322.8	820
322.9	807
323	635
323.1	623
323.2	429
323.3	653
323.4	657
323.5	597
323.6	420
323.7	825
323.8	718
323.9	634
324	677
324.1	454
324.2	566
324.3	360
324.4	589
324.5	765
324.6	863
324.7	560
324.8	556
324.9	739
325	656
325.1	343
325.2	508
325.3	465
325.4	708
325.5	511
325.6	715
325.7	281
325.8	134
325.9	372
326	224
326.1	326
326.2	420
326.3	431
326.4	269
326.5	476
326.6	336
326.7	370
326.8	419
326.9	339
327	215
327.1	271
327.2	223
327.3	264
327.4	252
327.5	413
327.6	148
327.7	233
327.8	341
327.9	367
328	222
328.1	307
328.2	2
328.3	71
328.4	163
328.5	306
328.6	170
328.7	64
328.8	228
328.9	159
329	31
329.1	21
329.2	126
329.3	137
329.4	213
329.5	341
329.6	293
329.7	129
329.8	119
329.9	318
330	336
330.1	574
330.2	497
330.3	478
330.4	591
330.5	996
330.6	775
330.7	579
330.8	524
330.9	549
331	298
331.1	417
331.2	69
331.3	337
331.4	319
331.5	481
331.6	747
331.7	1083
331.8	1296
331.9	1073
332	1024
332.1	968
332.2	1089
332.3	1114
332.4	1139
332.5	759
332.6	799
332.7	1029
332.8	995
332.9	1064
333	949
333.1	1055
333.2	1124
333.3	870
333.4	664
333.5	1088
333.6	1209
333.7	1057
333.8	1111
333.9	1298
334	1576
334.1	1229
334.2	846
334.3	806
334.4	1444
334.5	2234
334.6	2602
334.7	3170
334.8	3655
334.9	3327
335	2647
335.1	1985
335.2	1294
335.3	1905
335.4	2512
335.5	1827
335.6	929
335.7	599
335.8	483
335.9	403
336	371
336.1	597
336.2	412
336.3	189
336.4	419
336.5	216
336.6	69
336.7	127
336.8	63
336.9	73
337	16
337.1	208
337.2	123
337.3	385
337.4	245
337.5	120
337.6	1
337.7	1
337.8	90
337.9	1
338	1
338.1	1
338.2	76
338.3	59
338.4	1
338.5	1
338.6	1
338.7	1
338.8	30
338.9	1
339	1
339.1	1
339.2	1
339.3	53
339.4	129
339.5	73
339.6	1
339.7	1
339.8	1
339.9	132
340	89
340.1	1
340.2	1
340.3	1
340.4	1
340.5	1
340.6	1
340.7	73
340.8	43
340.9	105
341	24
341.1	105
341.2	364
341.3	620
341.4	523
341.5	255
341.6	528
341.7	505
341.8	654
341.9	418
342	290
342.1	306
342.2	407
342.3	208
342.4	172
342.5	299
342.6	243
342.7	573
342.8	622
342.9	764
343	934
343.1	930
343.2	706
343.3	623
343.4	456
343.5	290
343.6	364
343.7	367
343.8	448
343.9	347
344	467
344.1	790
344.2	609
344.3	677
344.4	634
344.5	754
344.6	653
344.7	753
344.8	652
344.9	739
345	985
345.1	987
345.2	937
345.3	1012
345.4	903
345.5	899
345.6	1158
345.7	1401
345.8	1296
345.9	1046
346	736
346.1	642
346.2	484
346.3	750
346.4	727
346.5	976
346.6	1195
346.7	1270
346.8	1412
346.9	1494
347	1263
347.1	1174
347.2	1091
347.3	1015
347.4	638
347.5	307
347.6	154
347.7	431
347.8	1
347.9	200
348	67
348.1	399
348.2	135
348.3	323
348.4	463
348.5	397
348.6	153
348.7	372
348.8	387
348.9	703
349	349
349.1	352
349.2	404
349.3	395
349.4	553
349.5	506
349.6	323
349.7	118
349.8	48
349.9	130
350	24
350.1	51
350.2	30
350.3	21
350.4	297
350.5	373
350.6	388
350.7	470
350.8	302
350.9	347
351	393
351.1	530
351.2	404
351.3	340
351.4	173
351.5	249
351.6	245
351.7	98
351.8	233
351.9	146
352	1
352.1	3
352.2	101
352.3	139
352.4	47
352.5	211
352.6	172
352.7	342
352.8	520
352.9	396
353	296
353.1	233
353.2	183
353.3	67
353.4	379
353.5	138
353.6	1
353.7	268
353.8	135
353.9	232
354	246
354.1	626
354.2	713
354.3	746
354.4	669
354.5	750
354.6	668
354.7	701
354.8	1026
354.9	1095
355	1426
355.1	1566
355.2	1368
355.3	1172
355.4	978
355.5	938
355.6	1092
355.7	1082
355.8	1566
355.9	1644
356	1841
356.1	1868
356.2	1643
356.3	1545
356.4	1250
356.5	1461
356.6	1377
356.7	1324
356.8	1295
356.9	1395
357	1545
357.1	1411
357.2	1512
357.3	1750
357.4	1959
357.5	2227
357.6	2919
357.7	3491
357.8	3933
357.9	4018
358	3698
358.1	3555
358.2	3446
358.3	3224
358.4	2847
358.5	2273
358.6	2059
358.7	1973
358.8	1652
358.9	1839
359	1865
359.1	2004
359.2	2384
359.3	2843
359.4	2883
359.5	3074
359.6	2845
359.7	2769
359.8	2808
359.9	2745
360	2617
360.1	2837
360.2	2761
360.3	2697
360.4	2737
360.5	2687
360.6	2401
360.7	2631
360.8	2779
360.9	3026
361	3086
361.1	3303
361.2	3436
361.3	3429
361.4	3610
361.5	3025
361.6	2987
361.7	2534
361.8	2662
361.9	2411
362	2176
362.1	2233
362.2	2284
362.3	2224
362.4	2206
362.5	1691
362.6	1687
362.7	1421
362.8	1517
362.9	1348
363	1556
363.1	1803
363.2	1459
363.3	1455
363.4	1581
363.5	1708
363.6	2058
363.7	2096
363.8	2213
363.9	2771
364	4159
364.1	6277
364.2	6943
364.3	5901
364.4	5084
364.5	4852
364.6	3505
364.7	2218
364.8	2081
364.9	2245
365	3058
365.1	3853
365.2	3722
365.3	3328
365.4	3710
365.5	5274
365.6	6471
365.7	5993
365.8	5124
365.9	4193
366	3601
366.1	2755
366.2	2172
366.3	1520
366.4	1556
366.5	1350
366.6	1467
366.7	1475
366.8	1580
366.9	1541
367	1740
367.1	1574
367.2	1697
367.3	1485
367.4	1304
367.5	1210
367.6	1285
367.7	1056
367.8	1030
367.9	772
368	675
368.1	401
368.2	641
368.3	239
368.4	306
368.5	340
368.6	262
368.7	21
368.8	129
368.9	127
369	219
369.1	89
369.2	23
369.3	205
369.4	377
369.5	263
369.6	181
369.7	151
369.8	164
369.9	378
370	222
370.1	372
370.2	195
370.3	198
370.4	400
370.5	197
370.6	247
370.7	296
370.8	100
370.9	354
371	53
371.1	348
371.2	334
371.3	1
371.4	407
371.5	278
371.6	223
371.7	283
371.8	166
371.9	262
372	217
372.1	240
372.2	274
372.3	412
372.4	268
372.5	146
372.6	278
372.7	141
372.8	423
372.9	394
373	246
373.1	212
373.2	168
373.3	232
373.4	255
373.5	366
373.6	203
373.7	113
373.8	244
373.9	323
374	361
374.1	364
374.2	258
374.3	404
374.4	94
374.5	367
374.6	329
374.7	106
374.8	129
374.9	86
375	134
