# Optical absorption spectrum of Program fragment delivered error ``Can't call method "sample_" on an undefined value at abs.template line 1.'':YSAG (Ho:Y3Sc2Al3O12)
# assuming unity concentration per meter.  This data was part of the NASA 
# Laser Spectra Database found on the web until December of 2005 which
# was created by Pat Cross working at NASA Langley Research Center, Internal
# Operations Group, Aerospace Electronics Systems Division, Remote Sensing.
#
# The spectra was collected by BMW on 12 February 1993 and was 
# annotated on 12 February 1993.  The sample name was "" was a 10.500
# long piece of :.   
# The incident light was unpolarized.
#
# Spectra were recorded from 600 to 700nm
# every 0.1nm at room temperature.
#
# FILE NAME ON PC = YSAG3.SP NO_POINTS = 1001. pts DATA_INTV = .000100 æm MIN_LAMBDA = .600000 æm MIN_DATA = .21110 MAX_LAMBDA = .700000 æm MAX_DATA = .69460 SCANSPEED = 15.000000 NM/MIN SLITWIDTH= .20000 NM RESP TIME = .5 sec SENSITIVITY = 5 DATE=93/02/12 12:58:45 93/02/12 YSAG3.
#
##Wavelength (nm)	Absorbance (/meter) 
600	319
600.1	284
600.2	267
600.3	285
600.4	235
600.5	227
600.6	137
600.7	241
600.8	271
600.9	181
601	328
601.1	380
601.2	357
601.3	396
601.4	346
601.5	348
601.6	294
601.7	355
601.8	373
601.9	76
602	260
602.1	256
602.2	329
602.3	359
602.4	299
602.5	236
602.6	275
602.7	241
602.8	431
602.9	325
603	299
603.1	295
603.2	251
603.3	439
603.4	219
603.5	310
603.6	241
603.7	355
603.8	261
603.9	174
604	364
604.1	391
604.2	331
604.3	340
604.4	173
604.5	224
604.6	300
604.7	441
604.8	387
604.9	362
605	192
605.1	289
605.2	223
605.3	413
605.4	634
605.5	288
605.6	293
605.7	419
605.8	409
605.9	269
606	345
606.1	598
606.2	380
606.3	376
606.4	378
606.5	442
606.6	244
606.7	292
606.8	424
606.9	370
607	431
607.1	307
607.2	281
607.3	450
607.4	486
607.5	432
607.6	562
607.7	234
607.8	504
607.9	444
608	483
608.1	411
608.2	324
608.3	533
608.4	501
608.5	475
608.6	308
608.7	295
608.8	534
608.9	490
609	474
609.1	504
609.2	459
609.3	400
609.4	426
609.5	562
609.6	579
609.7	470
609.8	416
609.9	598
610	526
610.1	537
610.2	299
610.3	532
610.4	593
610.5	524
610.6	573
610.7	439
610.8	441
610.9	526
611	721
611.1	624
611.2	647
611.3	510
611.4	540
611.5	437
611.6	430
611.7	749
611.8	542
611.9	597
612	596
612.1	394
612.2	575
612.3	655
612.4	688
612.5	619
612.6	649
612.7	611
612.8	557
612.9	538
613	676
613.1	610
613.2	479
613.3	596
613.4	706
613.5	467
613.6	571
613.7	573
613.8	603
613.9	614
614	704
614.1	650
614.2	745
614.3	701
614.4	749
614.5	531
614.6	614
614.7	771
614.8	671
614.9	726
615	728
615.1	783
615.2	608
615.3	678
615.4	833
615.5	682
615.6	604
615.7	640
615.8	735
615.9	737
616	858
616.1	795
616.2	772
616.3	786
616.4	898
616.5	672
616.6	824
616.7	860
616.8	841
616.9	582
617	670
617.1	784
617.2	915
617.3	873
617.4	859
617.5	855
617.6	593
617.7	691
617.8	684
617.9	736
618	685
618.1	740
618.2	851
618.3	925
618.4	703
618.5	933
618.6	913
618.7	887
618.8	833
618.9	1048
619	859
619.1	839
619.2	885
619.3	672
619.4	951
619.5	916
619.6	796
619.7	823
619.8	791
619.9	747
620	771
620.1	1001
620.2	865
620.3	901
620.4	900
620.5	996
620.6	892
620.7	866
620.8	831
620.9	914
621	957
621.1	978
621.2	986
621.3	922
621.4	934
621.5	1055
621.6	1038
621.7	971
621.8	952
621.9	966
622	959
622.1	1014
622.2	1016
622.3	1069
622.4	1146
622.5	988
622.6	1097
622.7	1090
622.8	907
622.9	1040
623	955
623.1	938
623.2	950
623.3	1190
623.4	1010
623.5	1125
623.6	1102
623.7	1082
623.8	1109
623.9	992
624	1117
624.1	1236
624.2	989
624.3	1073
624.4	959
624.5	1152
624.6	1167
624.7	996
624.8	1149
624.9	1120
625	1081
625.1	927
625.2	1123
625.3	1128
625.4	1055
625.5	1073
625.6	1137
625.7	1140
625.8	1079
625.9	1056
626	1180
626.1	1041
626.2	1181
626.3	1070
626.4	1091
626.5	1122
626.6	1105
626.7	1120
626.8	1144
626.9	1284
627	1394
627.1	1238
627.2	1152
627.3	1116
627.4	1216
627.5	1136
627.6	1151
627.7	1206
627.8	1215
627.9	1076
628	1200
628.1	1092
628.2	1157
628.3	1194
628.4	1149
628.5	1182
628.6	1320
628.7	1274
628.8	1185
628.9	1282
629	1331
629.1	1191
629.2	1320
629.3	1350
629.4	1232
629.5	1275
629.6	1230
629.7	1235
629.8	1272
629.9	1274
630	1289
630.1	1344
630.2	1296
630.3	1358
630.4	1408
630.5	1477
630.6	1406
630.7	1395
630.8	1378
630.9	1314
631	1608
631.1	1559
631.2	1561
631.3	1615
631.4	1585
631.5	1809
631.6	1746
631.7	1716
631.8	1692
631.9	1627
632	1680
632.1	1805
632.2	1894
632.3	1978
632.4	1902
632.5	2107
632.6	2105
632.7	2140
632.8	2254
632.9	2379
633	2542
633.1	2588
633.2	2725
633.3	2870
633.4	2872
633.5	3146
633.6	3179
633.7	3627
633.8	3725
633.9	4370
634	5011
634.1	5642
634.2	6512
634.3	7398
634.4	8829
634.5	10264
634.6	12097
634.7	13819
634.8	15799
634.9	17888
635	19518
635.1	20857
635.2	21410
635.3	21072
635.4	20430
635.5	19172
635.6	17406
635.7	15471
635.8	13363
635.9	11691
636	10190
636.1	8981
636.2	8013
636.3	7215
636.4	6958
636.5	6726
636.6	6794
636.7	7460
636.8	7927
636.9	9096
637	10437
637.1	11442
637.2	12267
637.3	12252
637.4	11368
637.5	10046
637.6	8783
637.7	8003
637.8	8189
637.9	8752
638	9943
638.1	10863
638.2	11673
638.3	11822
638.4	11209
638.5	10101
638.6	8822
638.7	7935
638.8	6991
638.9	6712
639	6389
639.1	6095
639.2	5877
639.3	5975
639.4	5692
639.5	5654
639.6	5488
639.7	5436
639.8	5345
639.9	5405
640	5747
640.1	6076
640.2	6377
640.3	6510
640.4	6582
640.5	6758
640.6	6648
640.7	6493
640.8	6030
640.9	5809
641	5258
641.1	5038
641.2	4583
641.3	4541
641.4	4403
641.5	4204
641.6	4217
641.7	4368
641.8	4492
641.9	4501
642	4804
642.1	4960
642.2	5133
642.3	5334
642.4	5325
642.5	5354
642.6	5180
642.7	5132
642.8	5043
642.9	4752
643	4450
643.1	4496
643.2	4144
643.3	4168
643.4	4381
643.5	4497
643.6	4499
643.7	4764
643.8	4796
643.9	4952
644	5419
644.1	5890
644.2	6187
644.3	6489
644.4	6684
644.5	6440
644.6	6004
644.7	5453
644.8	4899
644.9	4157
645	3905
645.1	4154
645.2	4009
645.3	4252
645.4	4211
645.5	3951
645.6	3690
645.7	3462
645.8	3044
645.9	2753
646	2598
646.1	2474
646.2	2420
646.3	2504
646.4	2490
646.5	2393
646.6	2464
646.7	2361
646.8	2521
646.9	2573
647	2387
647.1	2196
647.2	2172
647.3	1913
647.4	1880
647.5	1924
647.6	1977
647.7	2069
647.8	2449
647.9	2941
648	3208
648.1	3334
648.2	3271
648.3	2936
648.4	2703
648.5	2450
648.6	1994
648.7	1923
648.8	1586
648.9	1629
649	1662
649.1	1636
649.2	1710
649.3	1941
649.4	2020
649.5	1964
649.6	2270
649.7	2501
649.8	2899
649.9	3195
650	3469
650.1	3537
650.2	3830
650.3	4235
650.4	4157
650.5	4293
650.6	4251
650.7	4199
650.8	4480
650.9	4200
651	4041
651.1	3968
651.2	3765
651.3	3603
651.4	3515
651.5	3486
651.6	3302
651.7	3369
651.8	3323
651.9	3308
652	3406
652.1	3591
652.2	3517
652.3	3354
652.4	3559
652.5	3457
652.6	3463
652.7	3225
652.8	3098
652.9	3035
653	3044
653.1	2778
653.2	2867
653.3	2742
653.4	2618
653.5	2647
653.6	2563
653.7	2523
653.8	2290
653.9	2334
654	2245
654.1	2192
654.2	2047
654.3	1969
654.4	1818
654.5	1805
654.6	1845
654.7	1576
654.8	1852
654.9	1822
655	1799
655.1	1681
655.2	1696
655.3	1862
655.4	1864
655.5	1752
655.6	2014
655.7	2077
655.8	2072
655.9	2145
656	2089
656.1	2133
656.2	2189
656.3	2185
656.4	2139
656.5	2035
656.6	2114
656.7	2148
656.8	2214
656.9	2088
657	2135
657.1	2153
657.2	2136
657.3	1896
657.4	1816
657.5	1620
657.6	1757
657.7	1687
657.8	1595
657.9	1510
658	1574
658.1	1698
658.2	1750
658.3	1668
658.4	1858
658.5	1709
658.6	1683
658.7	1880
658.8	2126
658.9	1985
659	1823
659.1	2024
659.2	1988
659.3	1942
659.4	2273
659.5	2198
659.6	2082
659.7	1960
659.8	1817
659.9	2135
660	1902
660.1	1713
660.2	1693
660.3	1500
660.4	1388
660.5	1313
660.6	1444
660.7	1225
660.8	1173
660.9	1272
661	1225
661.1	1200
661.2	1087
661.3	1308
661.4	1383
661.5	1166
661.6	1183
661.7	1182
661.8	907
661.9	1131
662	1224
662.1	1311
662.2	1271
662.3	1331
662.4	1278
662.5	1344
662.6	1334
662.7	1332
662.8	1331
662.9	1142
663	1066
663.1	1146
663.2	1079
663.3	1223
663.4	1365
663.5	1257
663.6	1189
663.7	1182
663.8	1254
663.9	1189
664	1401
664.1	1520
664.2	1602
664.3	1595
664.4	1736
664.5	1879
664.6	2058
664.7	1883
664.8	1841
664.9	1997
665	2132
665.1	2287
665.2	2308
665.3	2365
665.4	2185
665.5	2321
665.6	2464
665.7	2616
665.8	2667
665.9	2590
666	2772
666.1	2836
666.2	2806
666.3	2906
666.4	2995
666.5	3207
666.6	3209
666.7	3332
666.8	3260
666.9	2859
667	2858
667.1	2666
667.2	2574
667.3	2582
667.4	2843
667.5	2418
667.6	2709
667.7	2639
667.8	2415
667.9	2378
668	2182
668.1	2254
668.2	2234
668.3	2163
668.4	2092
668.5	2075
668.6	1730
668.7	1464
668.8	1335
668.9	1523
669	1263
669.1	1118
669.2	1294
669.3	1128
669.4	1166
669.5	1117
669.6	1110
669.7	1019
669.8	985
669.9	724
670	909
670.1	1027
670.2	951
670.3	909
670.4	946
670.5	789
670.6	764
670.7	757
670.8	1011
670.9	950
671	858
671.1	937
671.2	814
671.3	799
671.4	839
671.5	868
671.6	926
671.7	780
671.8	841
671.9	899
672	692
672.1	709
672.2	772
672.3	725
672.4	953
672.5	679
672.6	730
672.7	552
672.8	653
672.9	792
673	668
673.1	688
673.2	789
673.3	782
673.4	823
673.5	728
673.6	648
673.7	726
673.8	781
673.9	750
674	732
674.1	646
674.2	701
674.3	673
674.4	866
674.5	698
674.6	706
674.7	696
674.8	900
674.9	767
675	769
675.1	625
675.2	735
675.3	548
675.4	585
675.5	671
675.6	752
675.7	649
675.8	738
675.9	632
676	669
676.1	785
676.2	728
676.3	704
676.4	642
676.5	734
676.6	655
676.7	744
676.8	589
676.9	815
677	657
677.1	746
677.2	719
677.3	683
677.4	804
677.5	606
677.6	541
677.7	630
677.8	734
677.9	701
678	682
678.1	801
678.2	663
678.3	732
678.4	678
678.5	487
678.6	492
678.7	597
678.8	637
678.9	650
679	456
679.1	768
679.2	674
679.3	815
679.4	562
679.5	616
679.6	517
679.7	582
679.8	567
679.9	641
680	577
680.1	590
680.2	699
680.3	652
680.4	735
680.5	477
680.6	597
680.7	758
680.8	659
680.9	589
681	709
681.1	740
681.2	655
681.3	562
681.4	639
681.5	511
681.6	333
681.7	521
681.8	445
681.9	456
682	578
682.1	641
682.2	761
682.3	435
682.4	483
682.5	591
682.6	691
682.7	702
682.8	629
682.9	498
683	477
683.1	640
683.2	461
683.3	469
683.4	334
683.5	456
683.6	472
683.7	488
683.8	599
683.9	633
684	374
684.1	502
684.2	469
684.3	583
684.4	602
684.5	467
684.6	531
684.7	300
684.8	665
684.9	435
685	669
685.1	722
685.2	446
685.3	531
685.4	556
685.5	449
685.6	465
685.7	544
685.8	361
685.9	380
686	504
686.1	535
686.2	324
686.3	470
686.4	538
686.5	488
686.6	436
686.7	433
686.8	398
686.9	473
687	393
687.1	392
687.2	459
687.3	286
687.4	460
687.5	321
687.6	337
687.7	378
687.8	577
687.9	462
688	546
688.1	502
688.2	473
688.3	328
688.4	483
688.5	425
688.6	427
688.7	514
688.8	476
688.9	532
689	540
689.1	442
689.2	365
689.3	517
689.4	562
689.5	498
689.6	232
689.7	386
689.8	521
689.9	452
690	299
690.1	315
690.2	336
690.3	480
690.4	448
690.5	399
690.6	437
690.7	482
690.8	572
690.9	418
691	507
691.1	450
691.2	446
691.3	369
691.4	475
691.5	514
691.6	397
691.7	428
691.8	432
691.9	358
692	445
692.1	241
692.2	451
692.3	442
692.4	275
692.5	389
692.6	313
692.7	298
692.8	165
692.9	470
693	501
693.1	508
693.2	403
693.3	374
693.4	359
693.5	229
693.6	281
693.7	413
693.8	341
693.9	234
694	147
694.1	263
694.2	411
694.3	396
694.4	364
694.5	369
694.6	231
694.7	160
694.8	187
694.9	351
695	320
695.1	347
695.2	354
695.3	286
695.4	263
695.5	419
695.6	281
695.7	249
695.8	296
695.9	147
696	180
696.1	190
696.2	164
696.3	373
696.4	484
696.5	228
696.6	336
696.7	263
696.8	223
696.9	348
697	319
697.1	240
697.2	206
697.3	372
697.4	327
697.5	248
697.6	350
697.7	332
697.8	29
697.9	328
698	177
698.1	259
698.2	64
698.3	119
698.4	209
698.5	401
698.6	163
698.7	265
698.8	228
698.9	445
699	436
699.1	242
699.2	202
699.3	64
699.4	1
699.5	297
699.6	241
699.7	110
699.8	7
699.9	324
700	193
