# Optical absorption spectrum of Program fragment delivered error ``Can't call method "sample_" on an undefined value at abs.template line 1.'':LA2BE2O5 (Nd:BeL)
# assuming unity concentration per meter.  This data was part of the NASA 
# Laser Spectra Database found on the web until December of 2005 which
# was created by Pat Cross working at NASA Langley Research Center, Internal
# Operations Group, Aerospace Electronics Systems Division, Remote Sensing.
#
# The spectra was collected by MIT on  5 January 1987 and was 
# annotated on  9 February 1988.  The sample name was "" was a 4.0000
# long piece of :.   
# The incident light had unknown polarization.
#
# Spectra were recorded from 300 to 1000nm
# every 0.1nm at room temperature.
#
# FILE NAME AT MIT = NDBELY.DAT ON PC = NDBELY.DAT NO_POINTS = 7001. pts DATA_INTV = 0.100 nm MIN_LAMBDA = 300.000 nm MIN_DATA = 3.2275920 MAX_LAMBDA = 1000.000 nm MAX_DATA = 123337.80 SCANSPEED = ? nm/min SLITWIDTH= ? nmITA = ?. RESP = ? ns ISMS = ? DATE =88/02/17 ? = nnn. DATA SENT FROM ALLIED CHEMICAL, TAKEN BY D. KNOWLES AT MIT.
#
##Wavelength (nm)	Absorbance (/meter) 
300	5620
300.1	5620
300.2	5620
300.3	5620
300.4	5620
300.5	5620
300.6	5620
300.7	5625
300.8	5613
300.9	5619
301	5590
301.1	5550
301.2	5584
301.3	5630
301.4	5642
301.5	5659
301.6	5671
301.7	5677
301.8	5694
301.9	5746
302	5769
302.1	5821
302.2	5861
302.3	5902
302.4	6000
302.5	6138
302.6	6386
302.7	6715
302.8	7068
302.9	7154
303	7004
303.1	6767
303.2	6629
303.3	6629
303.4	6687
303.5	6779
303.6	6883
303.7	6993
303.8	7114
303.9	7166
304	7160
304.1	7021
304.2	6929
304.3	6900
304.4	6877
304.5	6929
304.6	7010
304.7	7120
304.8	7339
304.9	7570
305	7662
305.1	7587
305.2	7414
305.3	7206
305.4	7068
305.5	6946
305.6	6802
305.7	6808
305.8	6877
305.9	6964
306	7016
306.1	6987
306.2	6877
306.3	6692
306.4	6496
306.5	6358
306.6	6311
306.7	6265
306.8	6277
306.9	6300
307	6392
307.1	6404
307.2	6444
307.3	6415
307.4	6340
307.5	6271
307.6	6161
307.7	6121
307.8	6109
307.9	6121
308	6150
308.1	6144
308.2	6138
308.3	6075
308.4	6029
308.5	5994
308.6	5965
308.7	5965
308.8	5954
308.9	5936
309	5890
309.1	5855
309.2	5827
309.3	5780
309.4	5717
309.5	5694
309.6	5659
309.7	5648
309.8	5630
309.9	5602
310	5573
310.1	5463
310.2	5457
310.3	5446
310.4	5434
310.5	5423
310.6	5411
310.7	5399
310.8	5405
310.9	5359
311	5353
311.1	5365
311.2	5348
311.3	5359
311.4	5342
311.5	5342
311.6	5365
311.7	5330
311.8	5324
311.9	5284
312	5296
312.1	5284
312.2	5296
312.3	5336
312.4	5342
312.5	5353
312.6	5382
312.7	5371
312.8	5348
312.9	5330
313	5301
313.1	5313
313.2	5290
313.3	5342
313.4	5307
313.5	5301
313.6	5267
313.7	5261
313.8	5232
313.9	5209
314	5174
314.1	5174
314.2	5169
314.3	5197
314.4	5192
314.5	5186
314.6	5209
314.7	5186
314.8	5163
314.9	5174
315	5209
315.1	5186
315.2	5146
315.3	5134
315.4	5128
315.5	5128
315.6	5163
315.7	5180
315.8	5203
315.9	5169
316	5180
316.1	5146
316.2	5134
316.3	5163
316.4	5134
316.5	5122
316.6	5099
316.7	5128
316.8	5134
316.9	5128
317	5163
317.1	5157
317.2	5105
317.3	5117
317.4	5122
317.5	5128
317.6	5122
317.7	5146
317.8	5122
317.9	5134
318	5105
318.1	5099
318.2	5105
318.3	5088
318.4	5082
318.5	5070
318.6	5088
318.7	5094
318.8	5088
318.9	5059
319	5047
319.1	5076
319.2	5070
319.3	5042
319.4	5059
319.5	5082
319.6	5128
319.7	5186
319.8	5319
319.9	5348
320	5342
320.1	5330
320.2	5319
320.3	5330
320.4	5365
320.5	5353
320.6	5313
320.7	5301
320.8	5296
320.9	5255
321	5232
321.1	5290
321.2	5324
321.3	5301
321.4	5319
321.5	5324
321.6	5336
321.7	5336
321.8	5342
321.9	5313
322	5290
322.1	5324
322.2	5324
322.3	5330
322.4	5330
322.5	5342
322.6	5359
322.7	5382
322.8	5417
322.9	5463
323	5492
323.1	5555
323.2	5613
323.3	5613
323.4	5648
323.5	5711
323.6	5734
323.7	5798
323.8	5832
323.9	5913
324	5925
324.1	6000
324.2	6133
324.3	6231
324.4	6311
324.5	6392
324.6	6531
324.7	6652
324.8	6756
324.9	6900
325	7016
325.1	7171
325.2	7327
325.3	7437
325.4	7541
325.5	7674
325.6	7824
325.7	7933
325.8	8107
325.9	8297
326	8464
326.1	8603
326.2	8747
326.3	8857
326.4	8978
326.5	9070
326.6	9174
326.7	9197
326.8	9203
326.9	9209
327	9220
327.1	9215
327.2	9209
327.3	9267
327.4	9272
327.5	9284
327.6	9278
327.7	9284
327.8	9336
327.9	9365
328	9451
328.1	9498
328.2	9567
328.3	9625
328.4	9671
328.5	9694
328.6	9717
328.7	9711
328.8	9734
328.9	9757
329	9838
329.1	9803
329.2	9815
329.3	9844
329.4	9896
329.5	9936
329.6	9994
329.7	10011
329.8	10034
329.9	10081
330	10104
330.1	10109
330.2	10161
330.3	10236
330.4	10300
330.5	10306
330.6	10323
330.7	10369
330.8	10392
330.9	10404
331	10392
331.1	10358
331.2	10386
331.3	10415
331.4	10392
331.5	10358
331.6	10329
331.7	10317
331.8	10277
331.9	10271
332	10271
332.1	10306
332.2	10329
332.3	10288
332.4	10294
332.5	10294
332.6	10294
332.7	10329
332.8	10317
332.9	10334
333	10340
333.1	10329
333.2	10363
333.3	10346
333.4	10352
333.5	10294
333.6	10294
333.7	10271
333.8	10190
333.9	10144
334	10138
334.1	10115
334.2	10046
334.3	10034
334.4	9982
334.5	9965
334.6	9902
334.7	9884
334.8	9867
334.9	9792
335	9786
335.1	9786
335.2	9769
335.3	9734
335.4	9705
335.5	9705
335.6	9676
335.7	9659
335.8	9653
335.9	9601
336	9561
336.1	9544
336.2	9544
336.3	9486
336.4	9434
336.5	9388
336.6	9313
336.7	9238
336.8	9215
336.9	9163
337	9065
337.1	9001
337.2	8967
337.3	8920
337.4	8874
337.5	8811
337.6	8736
337.7	8655
337.8	8603
337.9	8522
338	8459
338.1	8436
338.2	8389
338.3	8337
338.4	8343
338.5	8349
338.6	8378
338.7	8378
338.8	8343
338.9	8320
339	8320
339.1	8337
339.2	8303
339.3	8239
339.4	8257
339.5	8222
339.6	8205
339.7	8118
339.8	8083
339.9	8049
340	7968
340.1	7939
340.2	7905
340.3	7876
340.4	7824
340.5	7783
340.6	7749
340.7	7714
340.8	7702
340.9	7691
341	7668
341.1	7651
341.2	7610
341.3	7604
341.4	7651
341.5	7702
341.6	7737
341.7	7795
341.8	7783
341.9	7829
342	7951
342.1	7985
342.2	7974
342.3	8043
342.4	8118
342.5	8210
342.6	8228
342.7	8245
342.8	8216
342.9	8176
343	8130
343.1	8078
343.2	8037
343.3	7991
343.4	7968
343.5	7939
343.6	7928
343.7	7962
343.8	7939
343.9	7968
344	7980
344.1	7956
344.2	7968
344.3	7951
344.4	7962
344.5	7974
344.6	7956
344.7	7945
344.8	7962
344.9	7974
345	8003
345.1	8020
345.2	7910
345.3	7829
345.4	7783
345.5	7674
345.6	7564
345.7	7460
345.8	7368
345.9	7281
346	7212
346.1	7102
346.2	7050
346.3	6998
346.4	6923
346.5	6871
346.6	6814
346.7	6819
346.8	6785
346.9	6756
347	6710
347.1	6687
347.2	6623
347.3	6577
347.4	6537
347.5	6525
347.6	6548
347.7	6554
347.8	6513
347.9	6531
348	6548
348.1	6571
348.2	6629
348.3	6715
348.4	6785
348.5	6883
348.6	6993
348.7	7102
348.8	7212
348.9	7385
349	7483
349.1	7674
349.2	7928
349.3	8199
349.4	8522
349.5	8765
349.6	8995
349.7	9209
349.8	9428
349.9	9653
350	9936
350.1	10346
350.2	10860
350.3	11397
350.4	12072
350.5	12788
350.6	13578
350.7	14502
350.8	15477
350.9	16643
351	18017
351.1	19662
351.2	21538
351.3	23558
351.4	25405
351.5	26715
351.6	27212
351.7	26975
351.8	26248
351.9	25393
352	24701
352.1	24331
352.2	24297
352.3	24545
352.4	24937
352.5	25538
352.6	26277
352.7	27033
352.8	27650
352.9	27939
353	27858
353.1	27477
353.2	26900
353.3	26305
353.4	25942
353.5	25867
353.6	25994
353.7	26346
353.8	26652
353.9	26831
354	26698
354.1	26294
354.2	25671
354.3	24845
354.4	24002
354.5	23292
354.6	22669
354.7	22219
354.8	21890
354.9	21711
355	21682
355.1	21792
355.2	22075
355.3	22473
355.4	22865
355.5	23396
355.6	23835
355.7	24326
355.8	24643
355.9	24805
356	24782
356.1	24637
356.2	24337
356.3	24049
356.4	23795
356.5	23593
356.6	23466
356.7	23448
356.8	23402
356.9	23431
357	23506
357.1	23645
357.2	23777
357.3	24037
357.4	24314
357.5	24585
357.6	24782
357.7	24932
357.8	24926
357.9	24718
358	24424
358.1	24054
358.2	23633
358.3	23264
358.4	22952
358.5	22738
358.6	22617
358.7	22577
358.8	22548
358.9	22577
359	22744
359.1	23102
359.2	23714
359.3	24424
359.4	25145
359.5	25711
359.6	25994
359.7	25855
359.8	25549
359.9	25284
360	25232
360.1	25440
360.2	25982
360.3	26767
360.4	27783
360.5	29116
360.6	30877
360.7	33266
360.8	36447
360.9	40470
361	45457
361.1	50709
361.2	54830
361.3	56452
361.4	55125
361.5	51962
361.6	48614
361.7	46346
361.8	45428
361.9	45936
362	47812
362.1	50813
362.2	54426
362.3	57716
362.4	59309
362.5	58213
362.6	55136
362.7	51431
362.8	48118
362.9	45543
363	43569
363.1	41953
363.2	40701
363.3	40020
363.4	40025
363.5	40637
363.6	41705
363.7	42929
363.8	43644
363.9	43292
364	41907
364.1	39754
364.2	37439
364.3	35004
364.4	32678
364.5	30415
364.6	28256
364.7	26282
364.8	24510
364.9	23067
365	21971
365.1	21122
365.2	20389
365.3	19575
365.4	18606
365.5	17370
365.6	16060
365.7	14750
365.8	13584
365.9	12678
366	12031
366.1	11506
366.2	11079
366.3	10698
366.4	10421
366.5	10184
366.6	10052
366.7	10011
366.8	10029
366.9	10000
367	9930
367.1	9786
367.2	9486
367.3	9145
367.4	8730
367.5	8343
367.6	7997
367.7	7656
367.8	7431
367.9	7177
368	6918
368.1	6687
368.2	6508
368.3	6271
368.4	6063
368.5	5954
368.6	5867
368.7	5815
368.8	5728
368.9	5642
369	5544
369.1	5371
369.2	5180
369.3	4955
369.4	4736
369.5	4528
369.6	4384
369.7	4216
369.8	4078
369.9	3980
370	3939
370.1	3881
370.2	3806
370.3	3754
370.4	3731
370.5	3726
370.6	3720
370.7	3662
370.8	3616
370.9	3639
371	3604
371.1	3587
371.2	3529
371.3	3547
371.4	3495
371.5	3518
371.6	3558
371.7	3529
371.8	3547
371.9	3501
372	3466
372.1	3437
372.2	3443
372.3	3391
372.4	3414
372.5	3431
372.6	3431
372.7	3408
372.8	3402
372.9	3397
373	3368
373.1	3356
373.2	3374
373.3	3356
373.4	3339
373.5	3339
373.6	3350
373.7	3374
373.8	3345
373.9	3379
374	3350
374.1	3322
374.2	3339
374.3	3368
374.4	3345
374.5	3339
374.6	3310
374.7	3322
374.8	3281
374.9	3287
375	3316
375.1	3310
375.2	3299
375.3	3310
375.4	3293
375.5	3235
375.6	3223
375.7	3229
375.8	3247
375.9	3252
376	3235
376.1	3264
376.2	3287
376.3	3299
376.4	3299
376.5	3316
376.6	3252
376.7	3212
376.8	3223
376.9	3223
377	3241
377.1	3252
377.2	3241
377.3	3275
377.4	3247
377.5	3270
377.6	3281
377.7	3270
377.8	3247
377.9	3252
378	3235
378.1	3241
378.2	3241
378.3	3223
378.4	3258
378.5	3264
378.6	3235
378.7	3223
378.8	3223
378.9	3223
379	3235
379.1	3223
379.2	3183
379.3	3206
379.4	3235
379.5	3252
379.6	3310
379.7	3310
379.8	3241
379.9	3241
380	3247
380.1	3252
380.2	3247
380.3	3258
380.4	3252
380.5	3195
380.6	3195
380.7	3218
380.8	3235
380.9	3229
381	3195
381.1	3172
381.2	3235
381.3	3264
381.4	3241
381.5	3177
381.6	3172
381.7	3212
381.8	3241
381.9	3223
382	3223
382.1	3241
382.2	3177
382.3	3200
382.4	3223
382.5	3235
382.6	3281
382.7	3293
382.8	3275
382.9	3304
383	3275
383.1	3287
383.2	3287
383.3	3293
383.4	3270
383.5	3252
383.6	3287
383.7	3299
383.8	3275
383.9	3304
384	3327
384.1	3368
384.2	3385
384.3	3368
384.4	3379
384.5	3414
384.6	3391
384.7	3350
384.8	3299
384.9	3270
385	3258
385.1	3235
385.2	3212
385.3	3195
385.4	3264
385.5	3270
385.6	3316
385.7	3362
385.8	3425
385.9	3535
386	3622
386.1	3633
386.2	3604
386.3	3506
386.4	3408
386.5	3350
386.6	3350
386.7	3333
386.8	3345
386.9	3316
387	3304
387.1	3310
387.2	3316
387.3	3299
387.4	3339
387.5	3350
387.6	3391
387.7	3425
387.8	3402
387.9	3391
388	3333
388.1	3275
388.2	3247
388.3	3252
388.4	3235
388.5	3172
388.6	3172
388.7	3143
388.8	3172
388.9	3143
389	3091
389.1	3096
389.2	3137
389.3	3143
389.4	3143
389.5	3148
389.6	3137
389.7	3143
389.8	3073
389.9	3021
390	2981
390.1	2993
390.2	2993
390.3	3004
390.4	3016
390.5	3039
390.6	3016
390.7	3010
390.8	3004
390.9	3016
391	2981
391.1	2964
391.2	2964
391.3	2970
391.4	2993
391.5	3016
391.6	2987
391.7	2987
391.8	3021
391.9	3027
392	3010
392.1	2981
392.2	2981
392.3	2964
392.4	2981
392.5	2975
392.6	2981
392.7	2975
392.8	3004
392.9	2993
393	2952
393.1	2952
393.2	2929
393.3	2918
393.4	2941
393.5	2952
393.6	2941
393.7	2935
393.8	2906
393.9	2883
394	2877
394.1	2883
394.2	2860
394.3	2866
394.4	2877
394.5	2877
394.6	2889
394.7	2912
394.8	2900
394.9	2894
395	2860
395.1	2854
395.2	2877
395.3	2831
395.4	2825
395.5	2837
395.6	2808
395.7	2825
395.8	2889
395.9	2848
396	2825
396.1	2819
396.2	2796
396.3	2825
396.4	2837
396.5	2837
396.6	2843
396.7	2848
396.8	2831
396.9	2825
397	2814
397.1	2796
397.2	2785
397.3	2796
397.4	2831
397.5	2831
397.6	2819
397.7	2814
397.8	2837
397.9	2802
398	2796
398.1	2779
398.2	2791
398.3	2785
398.4	2791
398.5	2773
398.6	2762
398.7	2716
398.8	2733
398.9	2756
399	2727
399.1	2744
399.2	2773
399.3	2814
399.4	2791
399.5	2802
399.6	2796
399.7	2791
399.8	2767
399.9	2767
400	2773
400.1	2756
400.2	2767
400.3	2744
400.4	2733
400.5	2733
400.6	2733
400.7	2750
400.8	2756
400.9	2733
401	2710
401.1	2698
401.2	2733
401.3	2727
401.4	2739
401.5	2733
401.6	2704
401.7	2727
401.8	2698
401.9	2727
402	2721
402.1	2716
402.2	2692
402.3	2704
402.4	2687
402.5	2675
402.6	2681
402.7	2658
402.8	2704
402.9	2687
403	2664
403.1	2704
403.2	2710
403.3	2692
403.4	2669
403.5	2641
403.6	2646
403.7	2658
403.8	2629
403.9	2594
404	2571
404.1	2623
404.2	2641
404.3	2664
404.4	2675
404.5	2646
404.6	2664
404.7	2641
404.8	2623
404.9	2652
405	2681
405.1	2681
405.2	2675
405.3	2681
405.4	2687
405.5	2669
405.6	2692
405.7	2658
405.8	2646
405.9	2664
406	2635
406.1	2635
406.2	2617
406.3	2612
406.4	2681
406.5	2687
406.6	2687
406.7	2646
406.8	2600
406.9	2589
407	2612
407.1	2612
407.2	2612
407.3	2600
407.4	2577
407.5	2589
407.6	2583
407.7	2594
407.8	2600
407.9	2612
408	2612
408.1	2600
408.2	2589
408.3	2617
408.4	2594
408.5	2577
408.6	2594
408.7	2577
408.8	2554
408.9	2542
409	2554
409.1	2583
409.2	2577
409.3	2560
409.4	2542
409.5	2554
409.6	2548
409.7	2571
409.8	2565
409.9	2583
410	2531
410.1	2496
410.2	2531
410.3	2531
410.4	2508
410.5	2565
410.6	2594
410.7	2571
410.8	2589
410.9	2565
411	2554
411.1	2542
411.2	2560
411.3	2548
411.4	2525
411.5	2519
411.6	2508
411.7	2496
411.8	2542
411.9	2537
412	2531
412.1	2525
412.2	2548
412.3	2490
412.4	2473
412.5	2490
412.6	2514
412.7	2508
412.8	2490
412.9	2485
413	2456
413.1	2490
413.2	2496
413.3	2479
413.4	2485
413.5	2514
413.6	2490
413.7	2490
413.8	2444
413.9	2490
414	2496
414.1	2462
414.2	2462
414.3	2462
414.4	2490
414.5	2479
414.6	2456
414.7	2438
414.8	2479
414.9	2462
415	2479
415.1	2462
415.2	2462
415.3	2467
415.4	2485
415.5	2479
415.6	2450
415.7	2462
415.8	2467
415.9	2473
416	2502
416.1	2427
416.2	2456
416.3	2473
416.4	2456
416.5	2462
416.6	2462
416.7	2450
416.8	2467
416.9	2479
417	2485
417.1	2479
417.2	2479
417.3	2467
417.4	2485
417.5	2462
417.6	2467
417.7	2462
417.8	2502
417.9	2531
418	2531
418.1	2502
418.2	2525
418.3	2531
418.4	2525
418.5	2548
418.6	2508
418.7	2531
418.8	2490
418.9	2508
419	2485
419.1	2525
419.2	2531
419.3	2508
419.4	2519
419.5	2531
419.6	2560
419.7	2554
419.8	2565
419.9	2565
420	2577
420.1	2594
420.2	2594
420.3	2583
420.4	2577
420.5	2612
420.6	2612
420.7	2612
420.8	2635
420.9	2664
421	2635
421.1	2606
421.2	2641
421.3	2687
421.4	2704
421.5	2687
421.6	2692
421.7	2652
421.8	2704
421.9	2716
422	2681
422.1	2652
422.2	2606
422.3	2589
422.4	2600
422.5	2554
422.6	2548
422.7	2531
422.8	2537
422.9	2554
423	2577
423.1	2537
423.2	2560
423.3	2600
423.4	2577
423.5	2554
423.6	2560
423.7	2583
423.8	2554
423.9	2554
424	2502
424.1	2560
424.2	2571
424.3	2548
424.4	2560
424.5	2554
424.6	2565
424.7	2554
424.8	2560
424.9	2554
425	2548
425.1	2594
425.2	2629
425.3	2629
425.4	2629
425.5	2664
425.6	2698
425.7	2796
425.8	2894
425.9	2889
426	2964
426.1	2958
426.2	2952
426.3	2958
426.4	2941
426.5	2900
426.6	2854
426.7	2825
426.8	2819
426.9	2791
427	2750
427.1	2721
427.2	2721
427.3	2727
427.4	2721
427.5	2710
427.6	2716
427.7	2767
427.8	2785
427.9	2773
428	2739
428.1	2704
428.2	2721
428.3	2716
428.4	2687
428.5	2664
428.6	2635
428.7	2589
428.8	2600
428.9	2612
429	2606
429.1	2629
429.2	2617
429.3	2612
429.4	2583
429.5	2560
429.6	2606
429.7	2600
429.8	2565
429.9	2594
430	2600
430.1	2664
430.2	2698
430.3	2675
430.4	2721
430.5	2750
430.6	2762
430.7	2819
430.8	2819
430.9	2894
431	2923
431.1	2987
431.2	3056
431.3	3091
431.4	3195
431.5	3281
431.6	3350
431.7	3414
431.8	3472
431.9	3506
432	3501
432.1	3518
432.2	3541
432.3	3691
432.4	4049
432.5	4713
432.6	5896
432.7	7922
432.8	10698
432.9	13249
433	13659
433.1	11668
433.2	8903
433.3	6871
433.4	5740
433.5	5157
433.6	4990
433.7	5001
433.8	5186
433.9	5365
434	5480
434.1	5486
434.2	5394
434.3	5324
434.4	5324
434.5	5434
434.6	5665
434.7	6046
434.8	6490
434.9	6935
435	7177
435.1	7027
435.2	6508
435.3	5746
435.4	4984
435.5	4401
435.6	3991
435.7	3737
435.8	3552
435.9	3449
436	3339
436.1	3275
436.2	3270
436.3	3275
436.4	3322
436.5	3339
436.6	3408
436.7	3495
436.8	3691
436.9	3968
437	4234
437.1	4511
437.2	4666
437.3	4626
437.4	4418
437.5	4066
437.6	3743
437.7	3477
437.8	3299
437.9	3206
438	3102
438.1	3039
438.2	3050
438.3	3062
438.4	3073
438.5	3045
438.6	3062
438.7	3137
438.8	3183
438.9	3189
439	3218
439.1	3270
439.2	3379
439.3	3501
439.4	3587
439.5	3674
439.6	3685
439.7	3599
439.8	3535
439.9	3356
440	3206
440.1	3073
440.2	2952
440.3	2831
440.4	2767
440.5	2675
440.6	2646
440.7	2583
440.8	2542
440.9	2508
441	2537
441.1	2519
441.2	2514
441.3	2519
441.4	2525
441.5	2525
441.6	2519
441.7	2542
441.8	2565
441.9	2646
442	2779
442.1	2918
442.2	2998
442.3	3120
442.4	3189
442.5	3172
442.6	3102
442.7	2941
442.8	2744
442.9	2565
443	2438
443.1	2317
443.2	2231
443.3	2190
443.4	2138
443.5	2098
443.6	2081
443.7	2081
443.8	2081
443.9	2058
444	2034
444.1	2017
444.2	1988
444.3	2011
444.4	2029
444.5	2017
444.6	1988
444.7	1959
444.8	1988
444.9	1994
445	1988
445.1	1994
445.2	1988
445.3	1983
445.4	1988
445.5	1959
445.6	1977
445.7	1983
445.8	1988
445.9	1994
446	1988
446.1	2000
446.2	2000
446.3	2017
446.4	1994
446.5	1983
446.6	2000
446.7	2000
446.8	2006
446.9	1977
447	1954
447.1	1971
447.2	2006
447.3	2006
447.4	1988
447.5	2034
447.6	2029
447.7	2023
447.8	2034
447.9	2063
448	2023
448.1	1977
448.2	2006
448.3	2034
448.4	2040
448.5	2081
448.6	2069
448.7	2069
448.8	2052
448.9	2034
449	2046
449.1	2069
449.2	2069
449.3	2104
449.4	2092
449.5	2127
449.6	2109
449.7	2109
449.8	2127
449.9	2121
450	2150
450.1	2150
450.2	2167
450.3	2219
450.4	2219
450.5	2219
450.6	2248
450.7	2317
450.8	2329
450.9	2306
451	2346
451.1	2358
451.2	2363
451.3	2375
451.4	2450
451.5	2490
451.6	2496
451.7	2514
451.8	2560
451.9	2617
452	2669
452.1	2721
452.2	2739
452.3	2767
452.4	2831
452.5	2883
452.6	2894
452.7	2952
452.8	3004
452.9	3068
453	3114
453.1	3200
453.2	3281
453.3	3333
453.4	3425
453.5	3529
453.6	3628
453.7	3743
453.8	3858
453.9	3985
454	4159
454.1	4320
454.2	4470
454.3	4643
454.4	4713
454.5	4811
454.6	4874
454.7	4863
454.8	4822
454.9	4707
455	4603
455.1	4493
455.2	4384
455.3	4286
455.4	4251
455.5	4234
455.6	4118
455.7	4055
455.8	4026
455.9	3985
456	3985
456.1	3962
456.2	3968
456.3	4026
456.4	4037
456.5	4014
456.6	4032
456.7	4055
456.8	4055
456.9	4072
457	4072
457.1	4049
457.2	4003
457.3	3956
457.4	3980
457.5	3985
457.6	3951
457.7	3939
457.8	3939
457.9	3916
458	3887
458.1	3870
458.2	3870
458.3	3853
458.4	3835
458.5	3806
458.6	3783
458.7	3760
458.8	3743
458.9	3720
459	3708
459.1	3691
459.2	3697
459.3	3691
459.4	3697
459.5	3691
459.6	3708
459.7	3708
459.8	3726
459.9	3720
460	3783
460.1	3824
460.2	3801
460.3	3830
460.4	3899
460.5	3956
460.6	4008
460.7	4066
460.8	4107
460.9	4147
461	4187
461.1	4234
461.2	4361
461.3	4401
461.4	4499
461.5	4586
461.6	4661
461.7	4730
461.8	4759
461.9	4857
462	4863
462.1	4863
462.2	4897
462.3	4944
462.4	4938
462.5	4984
462.6	4995
462.7	5030
462.8	5065
462.9	5076
463	5059
463.1	5047
463.2	5059
463.3	5065
463.4	5019
463.5	5030
463.6	5070
463.7	5088
463.8	5070
463.9	5047
464	5059
464.1	5105
464.2	5088
464.3	5122
464.4	5146
464.5	5186
464.6	5192
464.7	5221
464.8	5244
464.9	5255
465	5307
465.1	5330
465.2	5399
465.3	5365
465.4	5342
465.5	5290
465.6	5232
465.7	5244
465.8	5203
465.9	5169
466	5140
466.1	5122
466.2	5117
466.3	5111
466.4	5082
466.5	5030
466.6	5059
466.7	5099
466.8	5140
466.9	5128
467	5163
467.1	5209
467.2	5180
467.3	5203
467.4	5244
467.5	5267
467.6	5261
467.7	5301
467.8	5342
467.9	5348
468	5330
468.1	5324
468.2	5307
468.3	5255
468.4	5249
468.5	5226
468.6	5232
468.7	5232
468.8	5238
468.9	5249
469	5249
469.1	5215
469.2	5261
469.3	5255
469.4	5267
469.5	5301
469.6	5348
469.7	5394
469.8	5446
469.9	5526
470	5584
470.1	5625
470.2	5717
470.3	5752
470.4	5809
470.5	5867
470.6	5948
470.7	5982
470.8	5977
470.9	5994
471	6029
471.1	6063
471.2	6092
471.3	6121
471.4	6161
471.5	6225
471.6	6254
471.7	6311
471.8	6265
471.9	6150
472	6104
472.1	6029
472.2	5954
472.3	5838
472.4	5786
472.5	5728
472.6	5682
472.7	5671
472.8	5648
472.9	5648
473	5630
473.1	5665
473.2	5677
473.3	5752
473.4	5844
473.5	5965
473.6	6040
473.7	6133
473.8	6294
473.9	6415
474	6560
474.1	6675
474.2	6796
474.3	6854
474.4	6860
474.5	6785
474.6	6658
474.7	6542
474.8	6410
474.9	6329
475	6288
475.1	6271
475.2	6231
475.3	6225
475.4	6219
475.5	6248
475.6	6265
475.7	6329
475.8	6438
475.9	6583
476	6727
476.1	6871
476.2	7027
476.3	7056
476.4	7010
476.5	6894
476.6	6785
476.7	6629
476.8	6513
476.9	6375
477	6219
477.1	6017
477.2	5896
477.3	5821
477.4	5769
477.5	5717
477.6	5705
477.7	5705
477.8	5769
477.9	5815
478	5867
478.1	5879
478.2	5902
478.3	5936
478.4	6029
478.5	6167
478.6	6260
478.7	6386
478.8	6508
478.9	6571
479	6629
479.1	6669
479.2	6675
479.3	6669
479.4	6565
479.5	6392
479.6	6156
479.7	5913
479.8	5734
479.9	5561
480	5469
480.1	5521
480.2	5648
480.3	5850
480.4	6000
480.5	6011
480.6	5884
480.7	5705
480.8	5457
480.9	5313
481	5232
481.1	5232
481.2	5278
481.3	5405
481.4	5521
481.5	5728
481.6	5977
481.7	6184
481.8	6311
481.9	6421
482	6456
482.1	6352
482.2	6173
482.3	5977
482.4	5792
482.5	5659
482.6	5590
482.7	5567
482.8	5613
482.9	5642
483	5648
483.1	5636
483.2	5532
483.3	5376
483.4	5238
483.5	5099
483.6	4967
483.7	4897
483.8	4897
483.9	4926
484	4995
484.1	5059
484.2	5157
484.3	5290
484.4	5417
484.5	5509
484.6	5561
484.7	5550
484.8	5469
484.9	5307
485	5134
485.1	4938
485.2	4770
485.3	4603
485.4	4493
485.5	4389
485.6	4274
485.7	4210
485.8	4095
485.9	3968
486	3847
486.1	3703
486.2	3552
486.3	3368
486.4	3229
486.5	3143
486.6	3073
486.7	2981
486.8	2900
486.9	2848
487	2779
487.1	2721
487.2	2664
487.3	2641
487.4	2583
487.5	2537
487.6	2479
487.7	2427
487.8	2381
487.9	2352
488	2277
488.1	2271
488.2	2260
488.3	2260
488.4	2254
488.5	2242
488.6	2242
488.7	2231
488.8	2213
488.9	2185
489	2213
489.1	2167
489.2	2150
489.3	2115
489.4	2075
489.5	2058
489.6	2040
489.7	2029
489.8	2000
489.9	1988
490	1965
490.1	1965
490.2	1959
490.3	2000
490.4	1983
490.5	1977
490.6	1971
490.7	1994
490.8	1977
490.9	1965
491	1959
491.1	1959
491.2	1971
491.3	1977
491.4	1931
491.5	1884
491.6	1890
491.7	1896
491.8	1919
491.9	1948
492	1954
492.1	1925
492.2	1931
492.3	1942
492.4	1919
492.5	1902
492.6	1931
492.7	1919
492.8	1884
492.9	1879
493	1856
493.1	1809
493.2	1856
493.3	1873
493.4	1907
493.5	1850
493.6	1827
493.7	1844
493.8	1873
493.9	1879
494	1867
494.1	1861
494.2	1884
494.3	1925
494.4	1942
494.5	1965
494.6	1983
494.7	2011
494.8	2058
494.9	2069
495	2098
495.1	2138
495.2	2150
495.3	2121
495.4	2179
495.5	2254
495.6	2283
495.7	2294
495.8	2323
495.9	2352
496	2438
496.1	2456
496.2	2485
496.3	2531
496.4	2554
496.5	2646
496.6	2687
496.7	2762
496.8	2825
496.9	2918
497	2998
497.1	3062
497.2	3177
497.3	3293
497.4	3316
497.5	3385
497.6	3443
497.7	3506
497.8	3651
497.9	3778
498	3887
498.1	3991
498.2	4083
498.3	4245
498.4	4418
498.5	4568
498.6	4713
498.7	4851
498.8	4990
498.9	5140
499	5313
499.1	5561
499.2	5815
499.3	6029
499.4	6300
499.5	6583
499.6	6814
499.7	6998
499.8	7154
499.9	7281
500	7368
500.1	7316
500.2	7293
500.3	7166
500.4	7004
500.5	6837
500.6	6664
500.7	6537
500.8	6358
500.9	6231
501	6092
501.1	5954
501.2	5832
501.3	5728
501.4	5648
501.5	5573
501.6	5486
501.7	5428
501.8	5434
501.9	5342
502	5278
502.1	5221
502.2	5215
502.3	5221
502.4	5169
502.5	5157
502.6	5128
502.7	5065
502.8	5047
502.9	5007
503	4967
503.1	4903
503.2	4857
503.3	4782
503.4	4765
503.5	4759
503.6	4684
503.7	4632
503.8	4643
503.9	4655
504	4661
504.1	4649
504.2	4684
504.3	4707
504.4	4695
504.5	4707
504.6	4788
504.7	4840
504.8	4892
504.9	4955
505	4972
505.1	5047
505.2	5088
505.3	5128
505.4	5197
505.5	5209
505.6	5221
505.7	5238
505.8	5284
505.9	5348
506	5405
506.1	5399
506.2	5434
506.3	5480
506.4	5509
506.5	5584
506.6	5625
506.7	5665
506.8	5694
506.9	5752
507	5809
507.1	5879
507.2	5942
507.3	6029
507.4	6092
507.5	6156
507.6	6294
507.7	6392
507.8	6462
507.9	6583
508	6721
508.1	6842
508.2	6969
508.3	7102
508.4	7189
508.5	7333
508.6	7506
508.7	7691
508.8	7806
508.9	7962
509	8147
509.1	8349
509.2	8516
509.3	8655
509.4	8770
509.5	8909
509.6	9076
509.7	9209
509.8	9336
509.9	9480
510	9578
510.1	9653
510.2	9676
510.3	9780
510.4	9798
510.5	9821
510.6	9792
510.7	9775
510.8	9711
510.9	9665
511	9619
511.1	9578
511.2	9509
511.3	9434
511.4	9376
511.5	9324
511.6	9261
511.7	9197
511.8	9203
511.9	9145
512	9145
512.1	9128
512.2	9134
512.3	9192
512.4	9244
512.5	9307
512.6	9376
512.7	9440
512.8	9532
512.9	9653
513	9728
513.1	9832
513.2	9902
513.3	10011
513.4	10150
513.5	10381
513.6	10617
513.7	10889
513.8	11252
513.9	11679
514	12124
514.1	12609
514.2	13099
514.3	13532
514.4	13878
514.5	14023
514.6	14040
514.7	13930
514.8	13786
514.9	13624
515	13486
515.1	13336
515.2	13290
515.3	13226
515.4	13192
515.5	13215
515.6	13295
515.7	13382
515.8	13451
515.9	13648
516	13861
516.1	14121
516.2	14369
516.3	14629
516.4	14865
516.5	15079
516.6	15131
516.7	15091
516.8	14871
516.9	14536
517	14109
517.1	13659
517.2	13238
517.3	12897
517.4	12505
517.5	12210
517.6	11985
517.7	11812
517.8	11720
517.9	11639
518	11650
518.1	11714
518.2	11801
518.3	11916
518.4	12008
518.5	12072
518.6	12216
518.7	12343
518.8	12505
518.9	12655
519	12782
519.1	12966
519.2	13220
519.3	13480
519.4	13798
519.5	14173
519.6	14531
519.7	14900
519.8	15235
519.9	15598
520	15956
520.1	16256
520.2	16516
520.3	16637
520.4	16689
520.5	16580
520.6	16435
520.7	16199
520.8	15904
520.9	15558
521	15206
521.1	14929
521.2	14640
521.3	14415
521.4	14190
521.5	14005
521.6	13873
521.7	13803
521.8	13723
521.9	13682
522	13665
522.1	13723
522.2	13780
522.3	13844
522.4	13907
522.5	13988
522.6	14040
522.7	14080
522.8	14121
522.9	14179
523	14161
523.1	14132
523.2	14057
523.3	14057
523.4	13988
523.5	13919
523.6	13850
523.7	13757
523.8	13659
523.9	13636
524	13630
524.1	13619
524.2	13653
524.3	13711
524.4	13855
524.5	13959
524.6	14127
524.7	14259
524.8	14473
524.9	14733
525	14992
525.1	15350
525.2	15725
525.3	16164
525.4	16649
525.5	17215
525.6	17855
525.7	18600
525.8	19460
525.9	20447
526	21572
526.1	22744
526.2	23899
526.3	24995
526.4	25913
526.5	26380
526.6	26427
526.7	26069
526.8	25474
526.9	24712
527	23893
527.1	23108
527.2	22340
527.3	21757
527.4	21272
527.5	20972
527.6	20776
527.7	20741
527.8	20834
527.9	21093
528	21555
528.1	22184
528.2	22992
528.3	24101
528.4	25520
528.5	27240
528.6	29122
528.7	31223
528.8	33405
528.9	35569
529	37768
529.1	40198
529.2	42588
529.3	44418
529.4	44972
529.5	43846
529.6	41289
529.7	37907
529.8	34351
529.9	31217
530	28834
530.1	27137
530.2	26132
530.3	25924
530.4	26461
530.5	27800
530.6	29717
530.7	32141
530.8	34473
530.9	35985
531	36072
531.1	34629
531.2	32245
531.3	29653
531.4	27419
531.5	25705
531.6	24435
531.7	23506
531.8	22865
531.9	22404
532	22115
532.1	21942
532.2	21786
532.3	21659
532.4	21572
532.5	21336
532.6	21018
532.7	20522
532.8	19824
532.9	19004
533	18179
533.1	17428
533.2	16776
533.3	16187
533.4	15685
533.5	15385
533.6	15166
533.7	14975
533.8	14848
533.9	14767
534	14629
534.1	14461
534.2	14231
534.3	13977
534.4	13746
534.5	13590
534.6	13503
534.7	13549
534.8	13665
534.9	13919
535	14254
535.1	14692
535.2	15166
535.3	15662
535.4	16181
535.5	16736
535.6	17145
535.7	17451
535.8	17532
535.9	17301
536	16811
536.1	16135
536.2	15327
536.3	14467
536.4	13665
536.5	12949
536.6	12332
536.7	11881
536.8	11564
536.9	11298
537	11096
537.1	10987
537.2	10929
537.3	10814
537.4	10658
537.5	10502
537.6	10294
537.7	10046
537.8	9763
537.9	9486
538	9278
538.1	9053
538.2	8891
538.3	8770
538.4	8695
538.5	8586
538.6	8499
538.7	8332
538.8	8193
538.9	8072
539	7887
539.1	7691
539.2	7495
539.3	7327
539.4	7114
539.5	6906
539.6	6698
539.7	6548
539.8	6375
539.9	6196
540	6029
540.1	5907
540.2	5815
540.3	5740
540.4	5677
540.5	5602
540.6	5550
540.7	5509
540.8	5428
540.9	5336
541	5238
541.1	5146
541.2	5001
541.3	4903
541.4	4793
541.5	4707
541.6	4643
541.7	4574
541.8	4563
541.9	4557
542	4528
542.1	4557
542.2	4591
542.3	4695
542.4	4840
542.5	4903
542.6	4995
542.7	5088
542.8	5140
542.9	5209
543	5226
543.1	5197
543.2	5105
543.3	4932
543.4	4793
543.5	4591
543.6	4401
543.7	4228
543.8	3997
543.9	3801
544	3656
544.1	3495
544.2	3356
544.3	3154
544.4	2975
544.5	2814
544.6	2692
544.7	2641
544.8	2577
544.9	2537
545	2531
545.1	2473
545.2	2387
545.3	2294
545.4	2242
545.5	2173
545.6	2115
545.7	2058
545.8	2029
545.9	1942
546	1838
546.1	1798
546.2	1757
546.3	1682
546.4	1607
546.5	1550
546.6	1521
546.7	1492
546.8	1480
546.9	1475
547	1434
547.1	1382
547.2	1371
547.3	1348
547.4	1359
547.5	1376
547.6	1353
547.7	1284
547.8	1255
547.9	1261
548	1261
548.1	1232
548.2	1261
548.3	1255
548.4	1255
548.5	1203
548.6	1232
548.7	1226
548.8	1192
548.9	1186
549	1180
549.1	1192
549.2	1215
549.3	1192
549.4	1192
549.5	1198
549.6	1140
549.7	1128
549.8	1163
549.9	1151
550	1163
550.1	1186
550.2	1180
550.3	1169
550.4	1151
550.5	1169
550.6	1198
550.7	1215
550.8	1244
550.9	1244
551	1215
551.1	1180
551.2	1163
551.3	1186
551.4	1192
551.5	1174
551.6	1215
551.7	1198
551.8	1244
551.9	1221
552	1203
552.1	1174
552.2	1186
552.3	1192
552.4	1174
552.5	1186
552.6	1198
552.7	1209
552.8	1192
552.9	1169
553	1203
553.1	1198
553.2	1186
553.3	1209
553.4	1192
553.5	1198
553.6	1163
553.7	1174
553.8	1180
553.9	1198
554	1255
554.1	1290
554.2	1296
554.3	1307
554.4	1267
554.5	1221
554.6	1244
554.7	1249
554.8	1238
554.9	1255
555	1221
555.1	1221
555.2	1198
555.3	1203
555.4	1255
555.5	1261
555.6	1232
555.7	1232
555.8	1255
555.9	1255
556	1267
556.1	1261
556.2	1284
556.3	1267
556.4	1284
556.5	1273
556.6	1284
556.7	1296
556.8	1301
556.9	1296
557	1313
557.1	1313
557.2	1319
557.3	1365
557.4	1365
557.5	1348
557.6	1365
557.7	1359
557.8	1319
557.9	1290
558	1330
558.1	1376
558.2	1388
558.3	1394
558.4	1428
558.5	1434
558.6	1440
558.7	1446
558.8	1463
558.9	1446
559	1492
559.1	1486
559.2	1486
559.3	1503
559.4	1503
559.5	1509
559.6	1561
559.7	1578
559.8	1590
559.9	1596
560	1584
560.1	1555
560.2	1561
560.3	1561
560.4	1607
560.5	1625
560.6	1619
560.7	1648
560.8	1659
560.9	1694
561	1682
561.1	1700
561.2	1688
561.3	1694
561.4	1717
561.5	1729
561.6	1729
561.7	1729
561.8	1769
561.9	1815
562	1815
562.1	1757
562.2	1740
562.3	1775
562.4	1786
562.5	1775
562.6	1804
562.7	1861
562.8	1838
562.9	1856
563	1867
563.1	1907
563.2	1896
563.3	1919
563.4	1942
563.5	1959
563.6	1971
563.7	1994
563.8	2011
563.9	2034
564	2058
564.1	2058
564.2	2133
564.3	2144
564.4	2138
564.5	2127
564.6	2121
564.7	2144
564.8	2167
564.9	2179
565	2185
565.1	2185
565.2	2208
565.3	2288
565.4	2288
565.5	2277
565.6	2306
565.7	2375
565.8	2392
565.9	2410
566	2415
566.1	2427
566.2	2433
566.3	2456
566.4	2450
566.5	2502
566.6	2537
566.7	2565
566.8	2554
566.9	2589
567	2612
567.1	2658
567.2	2687
567.3	2687
567.4	2704
567.5	2744
567.6	2785
567.7	2814
567.8	2831
567.9	2912
568	2941
568.1	2970
568.2	3004
568.3	3004
568.4	3027
568.5	3079
568.6	3125
568.7	3195
568.8	3218
568.9	3229
569	3299
569.1	3350
569.2	3391
569.3	3420
569.4	3518
569.5	3599
569.6	3628
569.7	3685
569.8	3703
569.9	3720
570	3760
570.1	3824
570.2	3893
570.3	3922
570.4	3962
570.5	4014
570.6	4083
570.7	4176
570.8	4268
570.9	4343
571	4407
571.1	4459
571.2	4539
571.3	4574
571.4	4661
571.5	4759
571.6	4874
571.7	4938
571.8	5013
571.9	5094
572	5203
572.1	5319
572.2	5475
572.3	5602
572.4	5700
572.5	5786
572.6	5907
572.7	6029
572.8	6173
572.9	6363
573	6560
573.1	6744
573.2	6929
573.3	7143
573.4	7397
573.5	7627
573.6	7853
573.7	8083
573.8	8401
573.9	8730
574	9053
574.1	9446
574.2	9855
574.3	10254
574.4	10750
574.5	11264
574.6	11899
574.7	12511
574.8	13203
574.9	13930
575	14814
575.1	15697
575.2	16701
575.3	17751
575.4	18946
575.5	20274
575.6	21723
575.7	23391
575.8	25232
575.9	27310
576	29549
576.1	32048
576.2	34738
576.3	37584
576.4	40400
576.5	43096
576.6	45422
576.7	47171
576.8	48354
576.9	48868
577	48793
577.1	48320
577.2	47696
577.3	47258
577.4	47090
577.5	47286
577.6	48077
577.7	49497
577.8	51581
577.9	54345
578	57693
578.1	61445
578.2	65318
578.3	68850
578.4	71176
578.5	71996
578.6	71246
578.7	69583
578.8	67609
578.9	65762
579	64371
579.1	63696
579.2	63684
579.3	64204
579.4	64914
579.5	65658
579.6	66045
579.7	65682
579.8	64723
579.9	63061
580	60816
580.1	58420
580.2	56273
580.3	54386
580.4	52804
580.5	51615
580.6	50778
580.7	50334
580.8	50167
580.9	49872
581	49503
581.1	48816
581.2	47892
581.3	46802
581.4	45543
581.5	44279
581.6	43211
581.7	42294
581.8	41514
581.9	40972
582	40499
582.1	40106
582.2	39760
582.3	39460
582.4	39171
582.5	38911
582.6	38657
582.7	38536
582.8	38542
582.9	38698
583	38882
583.1	39165
583.2	39540
583.3	39858
583.4	40193
583.5	40470
583.6	40678
583.7	40874
583.8	40978
583.9	41203
584	41526
584.1	42022
584.2	42669
584.3	43610
584.4	44793
584.5	46195
584.6	47829
584.7	49664
584.8	51610
584.9	53509
585	55188
585.1	56770
585.2	57924
585.3	58986
585.4	59811
585.5	60418
585.6	61029
585.7	61583
585.8	62120
585.9	62830
586	63529
586.1	64146
586.2	64804
586.3	65520
586.4	66409
586.5	67430
586.6	68694
586.7	70432
586.8	72487
586.9	75003
587	77693
587.1	80435
587.2	83523
587.3	86472
587.4	89318
587.5	91823
587.6	93952
587.7	95851
587.8	96873
587.9	97104
588	96556
588.1	95240
588.2	93473
588.3	91424
588.4	88862
588.5	86432
588.6	84273
588.7	82056
588.8	79927
588.9	77953
589	76146
589.1	74380
589.2	72798
589.3	71436
589.4	70495
589.5	69918
589.6	70010
589.7	70715
589.8	72140
589.9	74455
590	77450
590.1	81196
590.2	85381
590.3	89266
590.4	92123
590.5	92804
590.6	91026
590.7	87569
590.8	82784
590.9	77849
591	72971
591.1	68735
591.2	65006
591.3	61780
591.4	59234
591.5	57012
591.6	55055
591.7	53278
591.8	51679
591.9	50311
592	48989
592.1	47679
592.2	46617
592.3	45566
592.4	44643
592.5	43852
592.6	43211
592.7	42634
592.8	42149
592.9	41774
593	41359
593.1	41128
593.2	40903
593.3	40787
593.4	40805
593.5	40816
593.6	40839
593.7	40937
593.8	41001
593.9	41035
594	41116
594.1	41134
594.2	41082
594.3	40978
594.4	40735
594.5	40400
594.6	39910
594.7	39304
594.8	38709
594.9	38092
595	37445
595.1	36816
595.2	36256
595.3	35783
595.4	35310
595.5	34819
595.6	34340
595.7	33786
595.8	33128
595.9	32314
596	31460
596.1	30554
596.2	29584
596.3	28545
596.4	27460
596.5	26444
596.6	25440
596.7	24441
596.8	23575
596.9	22750
597	22040
597.1	21370
597.2	20805
597.3	20366
597.4	19985
597.5	19714
597.6	19500
597.7	19293
597.8	19137
597.9	19073
598	18998
598.1	18906
598.2	18773
598.3	18513
598.4	18063
598.5	17521
598.6	16845
598.7	16060
598.8	15223
598.9	14409
599	13601
599.1	12903
599.2	12291
599.3	11760
599.4	11304
599.5	10871
599.6	10496
599.7	10196
599.8	9896
599.9	9665
600	9423
600.1	9151
600.2	8886
600.3	8701
600.4	8499
600.5	8274
600.6	8078
600.7	7876
600.8	7616
600.9	7408
601	7218
601.1	7056
601.2	6854
601.3	6681
601.4	6502
601.5	6300
601.6	6161
601.7	6029
601.8	5919
601.9	5821
602	5723
602.1	5630
602.2	5561
602.3	5480
602.4	5434
602.5	5342
602.6	5267
602.7	5192
602.8	5174
602.9	5082
603	5007
603.1	4897
603.2	4828
603.3	4770
603.4	4684
603.5	4557
603.6	4459
603.7	4349
603.8	4239
603.9	4124
604	4066
604.1	3939
604.2	3864
604.3	3795
604.4	3697
604.5	3610
604.6	3581
604.7	3518
604.8	3466
604.9	3391
605	3310
605.1	3281
605.2	3235
605.3	3148
605.4	3050
605.5	2975
605.6	2952
605.7	2854
605.8	2802
605.9	2779
606	2704
606.1	2635
606.2	2560
606.3	2514
606.4	2467
606.5	2438
606.6	2410
606.7	2381
606.8	2335
606.9	2265
607	2248
607.1	2271
607.2	2225
607.3	2219
607.4	2202
607.5	2242
607.6	2260
607.7	2288
607.8	2329
607.9	2335
608	2335
608.1	2358
608.2	2358
608.3	2306
608.4	2265
608.5	2196
608.6	2115
608.7	2006
608.8	1971
608.9	1907
609	1832
609.1	1734
609.2	1648
609.3	1602
609.4	1544
609.5	1515
609.6	1428
609.7	1388
609.8	1353
609.9	1307
610	1261
610.1	1209
610.2	1169
610.3	1198
610.4	1198
610.5	1157
610.6	1117
610.7	1099
610.8	1099
610.9	1076
611	1030
611.1	1030
611.2	1042
611.3	995
611.4	984
611.5	972
611.6	967
611.7	949
611.8	978
611.9	961
612	897
612.1	909
612.2	909
612.3	874
612.4	863
612.5	857
612.6	845
612.7	857
612.8	857
612.9	857
613	834
613.1	845
613.2	851
613.3	828
613.4	759
613.5	765
613.6	788
613.7	822
613.8	793
613.9	770
614	742
614.1	776
614.2	782
614.3	759
614.4	747
614.5	736
614.6	770
614.7	753
614.8	782
614.9	805
615	770
615.1	770
615.2	730
615.3	730
615.4	713
615.5	666
615.6	690
615.7	713
615.8	730
615.9	718
616	724
616.1	724
616.2	742
616.3	742
616.4	707
616.5	672
616.6	638
616.7	649
616.8	684
616.9	707
617	701
617.1	684
617.2	713
617.3	672
617.4	695
617.5	701
617.6	707
617.7	666
617.8	661
617.9	661
618	643
618.1	655
618.2	649
618.3	655
618.4	638
618.5	615
618.6	661
618.7	643
618.8	672
618.9	713
619	690
619.1	643
619.2	661
619.3	678
619.4	661
619.5	655
619.6	678
619.7	678
619.8	666
619.9	695
620	684
620.1	661
620.2	695
620.3	666
620.4	626
620.5	615
620.6	672
620.7	695
620.8	684
620.9	678
621	695
621.1	684
621.2	713
621.3	701
621.4	718
621.5	713
621.6	713
621.7	690
621.8	690
621.9	701
622	672
622.1	672
622.2	690
622.3	701
622.4	747
622.5	747
622.6	742
622.7	730
622.8	742
622.9	742
623	770
623.1	770
623.2	828
623.3	799
623.4	828
623.5	869
623.6	863
623.7	897
623.8	972
623.9	1047
624	1071
624.1	1088
624.2	1157
624.3	1232
624.4	1336
624.5	1423
624.6	1492
624.7	1584
624.8	1705
624.9	1832
625	1948
625.1	2115
625.2	2260
625.3	2346
625.4	2398
625.5	2363
625.6	2208
625.7	2052
625.8	1896
625.9	1804
626	1694
626.1	1578
626.2	1527
626.3	1509
626.4	1486
626.5	1538
626.6	1602
626.7	1677
626.8	1757
626.9	1821
627	1815
627.1	1804
627.2	1757
627.3	1688
627.4	1619
627.5	1532
627.6	1480
627.7	1475
627.8	1492
627.9	1538
628	1521
628.1	1555
628.2	1636
628.3	1711
628.4	1775
628.5	1780
628.6	1792
628.7	1786
628.8	1775
628.9	1763
629	1717
629.1	1671
629.2	1607
629.3	1550
629.4	1492
629.5	1457
629.6	1457
629.7	1446
629.8	1532
629.9	1573
630	1625
630.1	1682
630.2	1711
630.3	1729
630.4	1688
630.5	1642
630.6	1544
630.7	1463
630.8	1359
630.9	1313
631	1244
631.1	1192
631.2	1180
631.3	1111
631.4	1082
631.5	1076
631.6	1094
631.7	1071
631.8	1105
631.9	1099
632	1082
632.1	1076
632.2	1128
632.3	1163
632.4	1209
632.5	1284
632.6	1319
632.7	1359
632.8	1417
632.9	1469
633	1498
633.1	1527
633.2	1527
633.3	1492
633.4	1521
633.5	1544
633.6	1538
633.7	1544
633.8	1532
633.9	1532
634	1538
634.1	1561
634.2	1619
634.3	1630
634.4	1654
634.5	1642
634.6	1607
634.7	1567
634.8	1555
634.9	1509
635	1486
635.1	1463
635.2	1365
635.3	1267
635.4	1198
635.5	1174
635.6	1140
635.7	1128
635.8	1128
635.9	1088
636	1082
636.1	1030
636.2	995
636.3	984
636.4	984
636.5	1001
636.6	1007
636.7	990
636.8	1001
636.9	1013
637	1036
637.1	1013
637.2	1007
637.3	1024
637.4	1065
637.5	1076
637.6	1071
637.7	1071
637.8	1047
637.9	1076
638	1053
638.1	1042
638.2	1024
638.3	1001
638.4	995
638.5	984
638.6	1001
638.7	1024
638.8	1053
638.9	1036
639	1065
639.1	1088
639.2	1053
639.3	1053
639.4	1053
639.5	1076
639.6	1094
639.7	1105
639.8	1071
639.9	1071
640	1019
640.1	995
640.2	990
640.3	972
640.4	926
640.5	880
640.6	874
640.7	869
640.8	828
640.9	828
641	828
641.1	834
641.2	793
641.3	776
641.4	828
641.5	840
641.6	805
641.7	776
641.8	747
641.9	770
642	730
642.1	770
642.2	753
642.3	753
642.4	742
642.5	765
642.6	690
642.7	690
642.8	672
642.9	695
643	690
643.1	713
643.2	730
643.3	718
643.4	736
643.5	753
643.6	736
643.7	718
643.8	701
643.9	661
644	649
644.1	649
644.2	672
644.3	713
644.4	724
644.5	707
644.6	690
644.7	643
644.8	643
644.9	666
645	632
645.1	632
645.2	643
645.3	609
645.4	597
645.5	591
645.6	597
645.7	586
645.8	603
645.9	574
646	580
646.1	586
646.2	615
646.3	580
646.4	626
646.5	649
646.6	603
646.7	580
646.8	597
646.9	615
647	580
647.1	586
647.2	580
647.3	551
647.4	591
647.5	603
647.6	597
647.7	551
647.8	580
647.9	574
648	551
648.1	568
648.2	568
648.3	574
648.4	574
648.5	563
648.6	591
648.7	586
648.8	597
648.9	603
649	586
649.1	580
649.2	591
649.3	597
649.4	603
649.5	643
649.6	591
649.7	586
649.8	597
649.9	597
650	597
650.1	591
650.2	545
650.3	534
650.4	540
650.5	563
650.6	580
650.7	597
650.8	580
650.9	586
651	586
651.1	557
651.2	586
651.3	568
651.4	568
651.5	511
651.6	488
651.7	476
651.8	522
651.9	557
652	534
652.1	482
652.2	476
652.3	482
652.4	476
652.5	464
652.6	459
652.7	464
652.8	418
652.9	436
653	453
653.1	482
653.2	464
653.3	424
653.4	424
653.5	459
653.6	476
653.7	470
653.8	441
653.9	470
654	459
654.1	447
654.2	447
654.3	441
654.4	441
654.5	424
654.6	464
654.7	441
654.8	413
654.9	424
655	447
655.1	459
655.2	424
655.3	441
655.4	424
655.5	430
655.6	430
655.7	482
655.8	464
655.9	470
656	430
656.1	407
656.2	418
656.3	436
656.4	413
656.5	407
656.6	424
656.7	430
656.8	407
656.9	430
657	470
657.1	499
657.2	453
657.3	418
657.4	407
657.5	407
657.6	401
657.7	441
657.8	470
657.9	447
658	407
658.1	430
658.2	407
658.3	407
658.4	395
658.5	378
658.6	384
658.7	413
658.8	447
658.9	459
659	436
659.1	395
659.2	378
659.3	418
659.4	447
659.5	453
659.6	384
659.7	401
659.8	395
659.9	436
660	441
660.1	424
660.2	413
660.3	401
660.4	447
660.5	441
660.6	459
660.7	436
660.8	430
660.9	401
661	413
661.1	424
661.2	430
661.3	453
661.4	476
661.5	459
661.6	476
661.7	436
661.8	418
661.9	418
662	418
662.1	441
662.2	418
662.3	424
662.4	459
662.5	453
662.6	476
662.7	459
662.8	441
662.9	464
663	453
663.1	493
663.2	453
663.3	453
663.4	441
663.5	424
663.6	401
663.7	424
663.8	430
663.9	407
664	430
664.1	430
664.2	447
664.3	447
664.4	459
664.5	464
664.6	476
664.7	476
664.8	476
664.9	499
665	470
665.1	464
665.2	436
665.3	441
665.4	447
665.5	482
665.6	464
665.7	470
665.8	441
665.9	464
666	476
666.1	488
666.2	470
666.3	488
666.4	476
666.5	470
666.6	505
666.7	511
666.8	464
666.9	464
667	430
667.1	470
667.2	488
667.3	511
667.4	493
667.5	534
667.6	534
667.7	522
667.8	557
667.9	528
668	557
668.1	574
668.2	580
668.3	545
668.4	540
668.5	540
668.6	557
668.7	574
668.8	597
668.9	563
669	551
669.1	563
669.2	586
669.3	586
669.4	557
669.5	597
669.6	603
669.7	626
669.8	655
669.9	678
670	643
670.1	638
670.2	626
670.3	626
670.4	643
670.5	655
670.6	684
670.7	707
670.8	666
670.9	684
671	736
671.1	753
671.2	759
671.3	788
671.4	747
671.5	770
671.6	828
671.7	874
671.8	920
671.9	955
672	995
672.1	1030
672.2	1065
672.3	1065
672.4	1117
672.5	1163
672.6	1128
672.7	1111
672.8	1088
672.9	1047
673	1036
673.1	1013
673.2	961
673.3	972
673.4	995
673.5	984
673.6	1007
673.7	1019
673.8	1001
673.9	1024
674	1007
674.1	990
674.2	1013
674.3	1036
674.4	1053
674.5	1088
674.6	1128
674.7	1163
674.8	1198
674.9	1249
675	1290
675.1	1359
675.2	1411
675.3	1469
675.4	1538
675.5	1619
675.6	1694
675.7	1780
675.8	1873
675.9	1931
676	1988
676.1	2029
676.2	2109
676.3	2121
676.4	2127
676.5	2127
676.6	2098
676.7	2104
676.8	2104
676.9	2104
677	2052
677.1	2081
677.2	2109
677.3	2133
677.4	2121
677.5	2150
677.6	2138
677.7	2144
677.8	2161
677.9	2150
678	2144
678.1	2098
678.2	2098
678.3	2086
678.4	2058
678.5	2081
678.6	2138
678.7	2179
678.8	2231
678.9	2277
679	2352
679.1	2404
679.2	2502
679.3	2606
679.4	2750
679.5	2894
679.6	3039
679.7	3247
679.8	3414
679.9	3587
680	3766
680.1	3951
680.2	4078
680.3	4159
680.4	4193
680.5	4176
680.6	4141
680.7	4083
680.8	4020
680.9	3881
681	3801
681.1	3703
681.2	3656
681.3	3628
681.4	3599
681.5	3581
681.6	3599
681.7	3674
681.8	3737
681.9	3876
682	4037
682.1	4210
682.2	4418
682.3	4609
682.4	4759
682.5	4892
682.6	4944
682.7	4961
682.8	4938
682.9	4903
683	4799
683.1	4672
683.2	4545
683.3	4378
683.4	4222
683.5	4101
683.6	4026
683.7	3928
683.8	3841
683.9	3795
684	3703
684.1	3662
684.2	3622
684.3	3610
684.4	3587
684.5	3552
684.6	3518
684.7	3552
684.8	3541
684.9	3599
685	3593
685.1	3616
685.2	3668
685.3	3754
685.4	3801
685.5	3853
685.6	3939
685.7	3997
685.8	4083
685.9	4164
686	4262
686.1	4384
686.2	4545
686.3	4747
686.4	4955
686.5	5203
686.6	5492
686.7	5752
686.8	5977
686.9	6092
687	6104
687.1	5994
687.2	5804
687.3	5550
687.4	5249
687.5	4955
687.6	4603
687.7	4309
687.8	4037
687.9	3847
688	3691
688.1	3529
688.2	3414
688.3	3322
688.4	3241
688.5	3183
688.6	3154
688.7	3062
688.8	3004
688.9	3045
689	3010
689.1	3027
689.2	3050
689.3	3056
689.4	3056
689.5	3045
689.6	3102
689.7	3114
689.8	3125
689.9	3183
690	3206
690.1	3212
690.2	3195
690.3	3195
690.4	3172
690.5	3235
690.6	3339
690.7	3425
690.8	3472
690.9	3541
691	3604
691.1	3749
691.2	3887
691.3	4003
691.4	4147
691.5	4297
691.6	4464
691.7	4632
691.8	4805
691.9	4984
692	5117
692.1	5284
692.2	5411
692.3	5538
692.4	5613
692.5	5677
692.6	5619
692.7	5596
692.8	5532
692.9	5469
693	5365
693.1	5307
693.2	5186
693.3	5053
693.4	4944
693.5	4736
693.6	4580
693.7	4441
693.8	4314
693.9	4147
694	3974
694.1	3795
694.2	3691
694.3	3535
694.4	3391
694.5	3293
694.6	3154
694.7	3050
694.8	2941
694.9	2883
695	2831
695.1	2739
695.2	2652
695.3	2583
695.4	2502
695.5	2462
695.6	2392
695.7	2352
695.8	2300
695.9	2271
696	2219
696.1	2208
696.2	2161
696.3	2138
696.4	2133
696.5	2092
696.6	2023
696.7	1971
696.8	1942
696.9	1907
697	1890
697.1	1879
697.2	1861
697.3	1809
697.4	1821
697.5	1798
697.6	1809
697.7	1780
697.8	1780
697.9	1763
698	1734
698.1	1688
698.2	1619
698.3	1613
698.4	1607
698.5	1596
698.6	1607
698.7	1607
698.8	1596
698.9	1567
699	1538
699.1	1527
699.2	1515
699.3	1555
699.4	1527
699.5	1521
699.6	1475
699.7	1428
699.8	1394
699.9	1376
700	1388
700.1	1336
700.2	1284
700.3	1267
700.4	1238
700.5	1192
700.6	1198
700.7	1169
700.8	1134
700.9	1122
701	1117
701.1	1082
701.2	1030
701.3	1024
701.4	995
701.5	967
701.6	955
701.7	961
701.8	915
701.9	926
702	915
702.1	932
702.2	909
702.3	897
702.4	886
702.5	845
702.6	840
702.7	869
702.8	840
702.9	822
703	805
703.1	788
703.2	793
703.3	788
703.4	776
703.5	776
703.6	793
703.7	840
703.8	834
703.9	857
704	863
704.1	851
704.2	822
704.3	817
704.4	799
704.5	793
704.6	759
704.7	782
704.8	788
704.9	776
705	776
705.1	776
705.2	765
705.3	805
705.4	817
705.5	782
705.6	805
705.7	793
705.8	788
705.9	788
706	765
706.1	793
706.2	770
706.3	770
706.4	788
706.5	805
706.6	776
706.7	759
706.8	724
706.9	759
707	742
707.1	730
707.2	701
707.3	690
707.4	684
707.5	643
707.6	672
707.7	690
707.8	661
707.9	684
708	649
708.1	615
708.2	615
708.3	580
708.4	615
708.5	586
708.6	591
708.7	574
708.8	603
708.9	609
709	586
709.1	609
709.2	615
709.3	649
709.4	620
709.5	638
709.6	638
709.7	626
709.8	649
709.9	672
710	678
710.1	718
710.2	718
710.3	695
710.4	713
710.5	724
710.6	742
710.7	770
710.8	799
710.9	799
711	805
711.1	805
711.2	753
711.3	730
711.4	765
711.5	765
711.6	759
711.7	759
711.8	753
711.9	736
712	742
712.1	707
712.2	661
712.3	649
712.4	649
712.5	615
712.6	580
712.7	557
712.8	528
712.9	499
713	557
713.1	597
713.2	586
713.3	586
713.4	586
713.5	557
713.6	522
713.7	522
713.8	522
713.9	522
714	522
714.1	545
714.2	534
714.3	511
714.4	545
714.5	528
714.6	511
714.7	545
714.8	545
714.9	528
715	522
715.1	516
715.2	516
715.3	505
715.4	493
715.5	522
715.6	528
715.7	522
715.8	551
715.9	528
716	511
716.1	516
716.2	516
716.3	493
716.4	505
716.5	499
716.6	516
716.7	534
716.8	545
716.9	568
717	609
717.1	603
717.2	586
717.3	557
717.4	551
717.5	534
717.6	540
717.7	563
717.8	586
717.9	597
718	574
718.1	574
718.2	591
718.3	609
718.4	609
718.5	615
718.6	620
718.7	638
718.8	620
718.9	615
719	620
719.1	666
719.2	655
719.3	661
719.4	672
719.5	690
719.6	718
719.7	724
719.8	707
719.9	690
720	695
720.1	724
720.2	759
720.3	765
720.4	782
720.5	765
720.6	782
720.7	759
720.8	730
720.9	788
721	776
721.1	776
721.2	776
721.3	759
721.4	753
721.5	753
721.6	765
721.7	770
721.8	788
721.9	782
722	782
722.1	776
722.2	782
722.3	788
722.4	811
722.5	840
722.6	845
722.7	834
722.8	857
722.9	880
723	926
723.1	909
723.2	892
723.3	892
723.4	915
723.5	938
723.6	926
723.7	926
723.8	926
723.9	978
724	1007
724.1	1065
724.2	1036
724.3	1076
724.4	1088
724.5	1111
724.6	1099
724.7	1099
724.8	1105
724.9	1105
725	1134
725.1	1192
725.2	1244
725.3	1232
725.4	1221
725.5	1221
725.6	1226
725.7	1221
725.8	1221
725.9	1226
726	1238
726.1	1209
726.2	1221
726.3	1261
726.4	1301
726.5	1307
726.6	1330
726.7	1336
726.8	1342
726.9	1348
727	1336
727.1	1359
727.2	1325
727.3	1376
727.4	1400
727.5	1469
727.6	1486
727.7	1480
727.8	1538
727.9	1550
728	1561
728.1	1607
728.2	1619
728.3	1630
728.4	1682
728.5	1694
728.6	1688
728.7	1688
728.8	1717
728.9	1740
729	1769
729.1	1798
729.2	1821
729.3	1827
729.4	1879
729.5	1896
729.6	1913
729.7	1925
729.8	1954
729.9	1994
730	2052
730.1	2017
730.2	2052
730.3	2063
730.4	2121
730.5	2161
730.6	2213
730.7	2277
730.8	2306
730.9	2369
731	2410
731.1	2427
731.2	2444
731.3	2496
731.4	2496
731.5	2560
731.6	2612
731.7	2652
731.8	2681
731.9	2727
732	2819
732.1	2860
732.2	2935
732.3	2964
732.4	3004
732.5	3045
732.6	3091
732.7	3172
732.8	3195
732.9	3270
733	3379
733.1	3449
733.2	3489
733.3	3547
733.4	3628
733.5	3691
733.6	3766
733.7	3870
733.8	3985
733.9	4089
734	4164
734.1	4303
734.2	4395
734.3	4545
734.4	4666
734.5	4799
734.6	4967
734.7	5122
734.8	5273
734.9	5411
735	5555
735.1	5711
735.2	5902
735.3	6046
735.4	6121
735.5	6219
735.6	6306
735.7	6358
735.8	6340
735.9	6392
736	6398
736.1	6381
736.2	6369
736.3	6346
736.4	6358
736.5	6306
736.6	6260
736.7	6242
736.8	6260
736.9	6254
737	6248
737.1	6283
737.2	6300
737.3	6306
737.4	6404
737.5	6467
737.6	6513
737.7	6635
737.8	6773
737.9	6946
738	7137
738.1	7350
738.2	7524
738.3	7772
738.4	8072
738.5	8499
738.6	8938
738.7	9469
738.8	10063
738.9	10733
739	11495
739.1	12337
739.2	13226
739.3	14219
739.4	15391
739.5	16822
739.6	18588
739.7	20730
739.8	23246
739.9	26277
740	29578
740.1	33082
740.2	36395
740.3	38963
740.4	40481
740.5	40608
740.6	39633
740.7	37953
740.8	35933
740.9	33913
741	32066
741.1	30542
741.2	29376
741.3	28383
741.4	27500
741.5	26750
741.6	26034
741.7	25388
741.8	24816
741.9	24308
742	23847
742.1	23408
742.2	23021
742.3	22750
742.4	22496
742.5	22288
742.6	22178
742.7	22092
742.8	22063
742.9	22098
743	22161
743.1	22259
743.2	22375
743.3	22502
743.4	22629
743.5	22779
743.6	23021
743.7	23292
743.8	23564
743.9	23835
744	24187
744.1	24568
744.2	25007
744.3	25515
744.4	26086
744.5	26704
744.6	27437
744.7	28297
744.8	29203
744.9	30161
745	31200
745.1	32251
745.2	33440
745.3	34502
745.4	35644
745.5	36712
745.6	37601
745.7	38605
745.8	39633
745.9	40585
746	41647
746.1	42807
746.2	44025
746.3	45232
746.4	46282
746.5	47309
746.6	48216
746.7	48937
746.8	49428
746.9	49791
747	49866
747.1	49918
747.2	49976
747.3	49947
747.4	49941
747.5	49872
747.6	49930
747.7	49970
747.8	49895
747.9	49722
748	49341
748.1	48776
748.2	48158
748.3	47229
748.4	46097
748.5	44799
748.6	43512
748.7	42230
748.8	40908
748.9	39627
749	38351
749.1	37174
749.2	36054
749.3	35061
749.4	34173
749.5	33370
749.6	32695
749.7	32112
749.8	31621
749.9	31188
750	30865
750.1	30669
750.2	30513
750.3	30444
750.4	30479
750.5	30571
750.6	30756
750.7	31015
750.8	31281
750.9	31616
751	32048
751.1	32528
751.2	33001
751.3	33613
751.4	34230
751.5	34946
751.6	35760
751.7	36562
751.8	37451
751.9	38415
752	39500
752.1	40649
752.2	41901
752.3	43258
752.4	44729
752.5	46432
752.6	48325
752.7	50311
752.8	52550
752.9	55032
753	57716
753.1	60562
753.2	63609
753.3	66917
753.4	70432
753.5	74189
753.6	78218
753.7	82437
753.8	86940
753.9	91540
754	95759
754.1	99545
754.2	102431
754.3	104232
754.4	104607
754.5	103620
754.6	101381
754.7	98270
754.8	94743
754.9	90772
755	86893
755.1	82899
755.2	79067
755.3	75667
755.4	72446
755.5	69456
755.6	66784
755.7	64360
755.8	62259
755.9	60521
756	58680
756.1	57185
756.2	55800
756.3	54732
756.4	53757
756.5	52839
756.6	52008
756.7	51321
756.8	50640
756.9	49993
757	49376
757.1	48891
757.2	48256
757.3	47650
757.4	47038
757.5	46467
757.6	45878
757.7	45260
757.8	44706
757.9	44089
758	43517
758.1	42981
758.2	42548
758.3	42103
758.4	41665
758.5	41260
758.6	40966
758.7	40735
758.8	40522
758.9	40418
759	40314
759.1	40250
759.2	40308
759.3	40285
759.4	40395
759.5	40551
759.6	40735
759.7	40862
759.8	41018
759.9	41203
760	41266
760.1	41301
760.2	41272
760.3	41203
760.4	41058
760.5	40764
760.6	40366
760.7	39829
760.8	39177
760.9	38415
761	37641
761.1	36776
761.2	35771
761.3	34744
761.4	33676
761.5	32660
761.6	31610
761.7	30623
761.8	29636
761.9	28689
762	27829
762.1	27033
762.2	26236
762.3	25474
762.4	24793
762.5	24164
762.6	23552
762.7	23015
762.8	22525
762.9	22046
763	21642
763.1	21261
763.2	20891
763.3	20493
763.4	20141
763.5	19806
763.6	19471
763.7	19137
763.8	18819
763.9	18571
764	18294
764.1	17965
764.2	17734
764.3	17469
764.4	17267
764.5	17076
764.6	16874
764.7	16724
764.8	16574
764.9	16412
765	16349
765.1	16314
765.2	16308
765.3	16320
765.4	16280
765.5	16326
765.6	16389
765.7	16516
765.8	16655
765.9	16816
766	17001
766.1	17226
766.2	17515
766.3	17769
766.4	18098
766.5	18415
766.6	18773
766.7	19200
766.8	19541
766.9	19858
767	20228
767.1	20568
767.2	20793
767.3	21013
767.4	21197
767.5	21324
767.6	21370
767.7	21359
767.8	21313
767.9	21157
768	20972
768.1	20759
768.2	20545
768.3	20262
768.4	19979
768.5	19639
768.6	19310
768.7	18940
768.8	18513
768.9	18063
769	17601
769.1	17065
769.2	16568
769.3	15985
769.4	15385
769.5	14837
769.6	14294
769.7	13775
769.8	13232
769.9	12689
770	12141
770.1	11668
770.2	11206
770.3	10796
770.4	10415
770.5	10005
770.6	9642
770.7	9272
770.8	8967
770.9	8661
771	8395
771.1	8112
771.2	7881
771.3	7691
771.4	7454
771.5	7229
771.6	7033
771.7	6900
771.8	6715
771.9	6554
772	6386
772.1	6225
772.2	6133
772.3	6017
772.4	5890
772.5	5723
772.6	5648
772.7	5573
772.8	5446
772.9	5388
773	5319
773.1	5232
773.2	5180
773.3	5151
773.4	5059
773.5	5001
773.6	4938
773.7	4903
773.8	4863
773.9	4834
774	4793
774.1	4730
774.2	4718
774.3	4661
774.4	4591
774.5	4539
774.6	4505
774.7	4522
774.8	4534
774.9	4511
775	4476
775.1	4389
775.2	4332
775.3	4297
775.4	4251
775.5	4210
775.6	4153
775.7	4112
775.8	4078
775.9	4014
776	3939
776.1	3858
776.2	3835
776.3	3812
776.4	3812
776.5	3766
776.6	3714
776.7	3679
776.8	3604
776.9	3564
777	3547
777.1	3518
777.2	3454
777.3	3402
777.4	3408
777.5	3379
777.6	3350
777.7	3304
777.8	3247
777.9	3200
778	3148
778.1	3108
778.2	3120
778.3	3068
778.4	3045
778.5	2998
778.6	2970
778.7	2993
778.8	2975
778.9	2946
779	2923
779.1	2889
779.2	2889
779.3	2883
779.4	2860
779.5	2843
779.6	2808
779.7	2819
779.8	2854
779.9	2866
780	2889
780.1	2843
780.2	2877
780.3	2883
780.4	2900
780.5	2923
780.6	2929
780.7	2923
780.8	2964
780.9	2998
781	3016
781.1	3039
781.2	3108
781.3	3143
781.4	3212
781.5	3275
781.6	3322
781.7	3425
781.8	3483
781.9	3581
782	3697
782.1	3841
782.2	3939
782.3	4037
782.4	4199
782.5	4309
782.6	4436
782.7	4511
782.8	4574
782.9	4649
783	4684
783.1	4701
783.2	4724
783.3	4678
783.4	4620
783.5	4568
783.6	4539
783.7	4459
783.8	4412
783.9	4361
784	4274
784.1	4187
784.2	4107
784.3	4089
784.4	4078
784.5	4037
784.6	3997
784.7	3991
784.8	3980
784.9	3991
785	3991
785.1	3980
785.2	3974
785.3	3985
785.4	4078
785.5	4118
785.6	4130
785.7	4216
785.8	4303
785.9	4378
786	4482
786.1	4620
786.2	4695
786.3	4788
786.4	4920
786.5	5065
786.6	5226
786.7	5405
786.8	5630
786.9	5838
787	6081
787.1	6283
787.2	6490
787.3	6727
787.4	6958
787.5	7148
787.6	7397
787.7	7610
787.8	7772
787.9	7905
788	8049
788.1	8158
788.2	8239
788.3	8280
788.4	8268
788.5	8245
788.6	8205
788.7	8095
788.8	8020
788.9	7910
789	7835
789.1	7714
789.2	7552
789.3	7425
789.4	7356
789.5	7275
789.6	7177
789.7	7148
789.8	7050
789.9	6993
790	7010
790.1	6987
790.2	6987
790.3	7050
790.4	7091
790.5	7102
790.6	7189
790.7	7310
790.8	7443
790.9	7587
791	7806
791.1	8014
791.2	8228
791.3	8436
791.4	8666
791.5	8932
791.6	9249
791.7	9573
791.8	9832
791.9	10052
792	10265
792.1	10461
792.2	10623
792.3	10767
792.4	10889
792.5	10941
792.6	10929
792.7	10894
792.8	10871
792.9	10837
793	10814
793.1	10814
793.2	10762
793.3	10750
793.4	10762
793.5	10756
793.6	10837
793.7	10941
793.8	11050
793.9	11241
794	11420
794.1	11754
794.2	12095
794.3	12435
794.4	12834
794.5	13324
794.6	13867
794.7	14444
794.8	15079
794.9	15766
795	16499
795.1	17243
795.2	17988
795.3	18773
795.4	19471
795.5	20083
795.6	20678
795.7	21168
795.8	21492
795.9	21682
796	21694
796.1	21642
796.2	21388
796.3	21024
796.4	20626
796.5	20222
796.6	19754
796.7	19316
796.8	18929
796.9	18571
797	18271
797.1	18034
797.2	17896
797.3	17792
797.4	17780
797.5	17896
797.6	18005
797.7	18144
797.8	18352
797.9	18611
798	18831
798.1	19085
798.2	19333
798.3	19529
798.4	19737
798.5	19939
798.6	20181
798.7	20389
798.8	20528
798.9	20707
799	20903
799.1	21116
799.2	21370
799.3	21636
799.4	21919
799.5	22329
799.6	22721
799.7	23154
799.8	23662
799.9	24135
800	24614
800.1	25134
800.2	25688
800.3	26144
800.4	26629
800.5	27015
800.6	27396
800.7	27679
800.8	27893
800.9	28049
801	28170
801.1	28106
801.2	28043
801.3	27893
801.4	27800
801.5	27668
801.6	27558
801.7	27466
801.8	27466
801.9	27442
802	27448
802.1	27564
802.2	27760
802.3	27991
802.4	28331
802.5	28707
802.6	29197
802.7	29757
802.8	30340
802.9	30946
803	31569
803.1	32210
803.2	32839
803.3	33405
803.4	33901
803.5	34357
803.6	34698
803.7	34969
803.8	35108
803.9	35131
804	35079
804.1	34923
804.2	34686
804.3	34478
804.4	34201
804.5	33832
804.6	33491
804.7	33226
804.8	32949
804.9	32758
805	32556
805.1	32464
805.2	32366
805.3	32297
805.4	32314
805.5	32383
805.6	32453
805.7	32574
805.8	32776
805.9	33018
806	33318
806.1	33572
806.2	33907
806.3	34271
806.4	34704
806.5	35119
806.6	35616
806.7	36118
806.8	36643
806.9	37139
807	37768
807.1	38403
807.2	38992
807.3	39696
807.4	40389
807.5	41128
807.6	41947
807.7	42825
807.8	43719
807.9	44654
808	45855
808.1	47073
808.2	48447
808.3	49849
808.4	51408
808.5	53081
808.6	55032
808.7	57174
808.8	59448
808.9	62039
809	64856
809.1	67990
809.2	71355
809.3	74917
809.4	78813
809.5	82899
809.6	87320
809.7	91898
809.8	96931
809.9	102079
810	107164
810.1	111695
810.2	116036
810.3	119643
810.4	122027
810.5	123337
810.6	123297
810.7	122246
810.8	120584
810.9	119326
811	118985
811.1	114876
811.2	109860
811.3	104879
811.4	100111
811.5	95413
811.6	91032
811.7	87067
811.8	83205
811.9	79765
812	76614
812.1	73699
812.2	71032
812.3	68764
812.4	66593
812.5	64591
812.6	62836
812.7	61272
812.8	59887
812.9	58663
813	57647
813.1	56677
813.2	55731
813.3	54934
813.4	54259
813.5	53624
813.6	53064
813.7	52470
813.8	52014
813.9	51540
814	51102
814.1	50634
814.2	50311
814.3	49941
814.4	49624
814.5	49301
814.6	49024
814.7	48706
814.8	48406
814.9	48141
815	47927
815.1	47696
815.2	47558
815.3	47500
815.4	47477
815.5	47396
815.6	47448
815.7	47535
815.8	47662
815.9	47835
816	48008
816.1	48210
816.2	48493
816.3	48897
816.4	49203
816.5	49612
816.6	49982
816.7	50548
816.8	51061
816.9	51442
817	51962
817.1	52487
817.2	52891
817.3	53376
817.4	53676
817.5	53803
817.6	53982
817.7	53953
817.8	53716
817.9	53353
818	52839
818.1	52158
818.2	51252
818.3	50213
818.4	49151
818.5	47916
818.6	46623
818.7	45249
818.8	43864
818.9	42444
819	40995
819.1	39604
819.2	38282
819.3	36989
819.4	35696
819.5	34513
819.6	33353
819.7	32297
819.8	31269
819.9	30328
820	29428
820.1	28620
820.2	27870
820.3	27154
820.4	26507
820.5	25884
820.6	25272
820.7	24770
820.8	24251
820.9	23841
821	23356
821.1	22929
821.2	22479
821.3	22046
821.4	21676
821.5	21313
821.6	20989
821.7	20678
821.8	20343
821.9	20060
822	19749
822.1	19471
822.2	19148
822.3	18929
822.4	18704
822.5	18484
822.6	18202
822.7	18034
822.8	17838
822.9	17642
823	17422
823.1	17290
823.2	17111
823.3	16966
823.4	16788
823.5	16643
823.6	16487
823.7	16407
823.8	16251
823.9	16124
824	15956
824.1	15841
824.2	15674
824.3	15489
824.4	15356
824.5	15189
824.6	15021
824.7	14871
824.8	14710
824.9	14519
825	14381
825.1	14190
825.2	14029
825.3	13815
825.4	13624
825.5	13405
825.6	13180
825.7	12938
825.8	12695
825.9	12499
826	12285
826.1	12049
826.2	11812
826.3	11587
826.4	11327
826.5	11073
826.6	10900
826.7	10675
826.8	10456
826.9	10242
827	10034
827.1	9815
827.2	9671
827.3	9451
827.4	9290
827.5	9128
827.6	8961
827.7	8840
827.8	8713
827.9	8609
828	8516
828.1	8384
828.2	8285
828.3	8158
828.4	8055
828.5	7893
828.6	7824
828.7	7749
828.8	7656
828.9	7581
829	7552
829.1	7495
829.2	7460
829.3	7425
829.4	7368
829.5	7310
829.6	7281
829.7	7218
829.8	7206
829.9	7166
830	7137
830.1	7137
830.2	7120
830.3	7120
830.4	7091
830.5	7108
830.6	7073
830.7	7039
830.8	7056
830.9	6998
831	6958
831.1	6958
831.2	6964
831.3	6923
831.4	6796
831.5	6739
831.6	6721
831.7	6681
831.8	6629
831.9	6612
832	6531
832.1	6502
832.2	6438
832.3	6386
832.4	6323
832.5	6288
832.6	6271
832.7	6236
832.8	6173
832.9	6127
833	6092
833.1	6075
833.2	6057
833.3	6057
833.4	6034
833.5	5988
833.6	5954
833.7	5907
833.8	5855
833.9	5832
834	5786
834.1	5723
834.2	5625
834.3	5573
834.4	5555
834.5	5475
834.6	5376
834.7	5301
834.8	5174
834.9	5070
835	5007
835.1	4932
835.2	4822
835.3	4747
835.4	4643
835.5	4551
835.6	4464
835.7	4395
835.8	4378
835.9	4314
836	4234
836.1	4216
836.2	4147
836.3	4078
836.4	4032
836.5	3991
836.6	3933
836.7	3916
836.8	3870
836.9	3824
837	3783
837.1	3708
837.2	3668
837.3	3576
837.4	3547
837.5	3466
837.6	3391
837.7	3339
837.8	3270
837.9	3183
838	3125
838.1	3050
838.2	2975
838.3	2923
838.4	2883
838.5	2819
838.6	2721
838.7	2606
838.8	2548
838.9	2456
839	2438
839.1	2387
839.2	2329
839.3	2277
839.4	2225
839.5	2185
839.6	2144
839.7	2075
839.8	2006
839.9	1965
840	1931
840.1	1890
840.2	1879
840.3	1867
840.4	1873
840.5	1850
840.6	1804
840.7	1804
840.8	1757
840.9	1746
841	1723
841.1	1717
841.2	1740
841.3	1729
841.4	1694
841.5	1682
841.6	1700
841.7	1734
841.8	1734
841.9	1711
842	1717
842.1	1711
842.2	1711
842.3	1711
842.4	1757
842.5	1740
842.6	1769
842.7	1821
842.8	1815
842.9	1798
843	1827
843.1	1861
843.2	1861
843.3	1867
843.4	1867
843.5	1896
843.6	1913
843.7	1913
843.8	1896
843.9	1890
844	1931
844.1	1948
844.2	1907
844.3	1902
844.4	1902
844.5	1879
844.6	1902
844.7	1890
844.8	1856
844.9	1832
845	1769
845.1	1752
845.2	1711
845.3	1694
845.4	1677
845.5	1619
845.6	1573
845.7	1550
845.8	1515
845.9	1469
846	1423
846.1	1388
846.2	1359
846.3	1284
846.4	1267
846.5	1238
846.6	1226
846.7	1140
846.8	1140
846.9	1117
847	1105
847.1	1071
847.2	1076
847.3	1019
847.4	1001
847.5	961
847.6	978
847.7	949
847.8	938
847.9	897
848	892
848.1	880
848.2	869
848.3	880
848.4	863
848.5	840
848.6	817
848.7	799
848.8	788
848.9	799
849	799
849.1	776
849.2	799
849.3	828
849.4	828
849.5	834
849.6	805
849.7	799
849.8	805
849.9	805
850	845
850.1	886
850.2	649
850.3	557
850.4	753
850.5	863
850.6	793
850.7	759
850.8	811
850.9	753
851	817
851.1	770
851.2	1036
851.3	1036
851.4	955
851.5	1036
851.6	955
851.7	880
851.8	788
851.9	915
852	793
852.1	678
852.2	765
852.3	857
852.4	932
852.5	915
852.6	730
852.7	568
852.8	828
852.9	863
853	782
853.1	505
853.2	528
853.3	742
853.4	840
853.5	920
853.6	897
853.7	776
853.8	961
853.9	851
854	938
854.1	840
854.2	840
854.3	793
854.4	765
854.5	632
854.6	655
854.7	718
854.8	828
854.9	938
855	961
855.1	1047
855.2	1071
855.3	1042
855.4	707
855.5	718
855.6	915
855.7	1059
855.8	944
855.9	857
856	1024
856.1	1151
856.2	1065
856.3	1024
856.4	1030
856.5	1198
856.6	1221
856.7	1325
856.8	1232
856.9	1053
857	903
857.1	1244
857.2	1209
857.3	1094
857.4	1169
857.5	1319
857.6	1411
857.7	1353
857.8	1359
857.9	1244
858	1319
858.1	1394
858.2	1371
858.3	1503
858.4	1688
858.5	1550
858.6	1480
858.7	1411
858.8	1521
858.9	1578
859	1267
859.1	1440
859.2	1561
859.3	1625
859.4	1428
859.5	1423
859.6	1613
859.7	1780
859.8	1705
859.9	1856
860	2029
860.1	1971
860.2	1809
860.3	1734
860.4	1590
860.5	1550
860.6	1567
860.7	1700
860.8	1965
860.9	2202
861	2277
861.1	2346
861.2	2156
861.3	2173
861.4	2202
861.5	1942
861.6	2190
861.7	2271
861.8	2254
861.9	2352
862	2490
862.1	2381
862.2	2583
862.3	2854
862.4	2710
862.5	2791
862.6	2814
862.7	2877
862.8	3096
862.9	3402
863	3327
863.1	3229
863.2	3172
863.3	3143
863.4	3408
863.5	3587
863.6	3414
863.7	3212
863.8	3420
863.9	3501
864	3749
864.1	3974
864.2	3939
864.3	3651
864.4	4020
864.5	4159
864.6	4574
864.7	4470
864.8	4412
864.9	4666
865	4730
865.1	4857
865.2	4903
865.3	5019
865.4	4892
865.5	5047
865.6	5244
865.7	5197
865.8	5446
865.9	5463
866	5573
866.1	5942
866.2	6179
866.3	6381
866.4	6462
866.5	6513
866.6	6606
866.7	6866
866.8	7143
866.9	7575
867	8020
867.1	8245
867.2	8343
867.3	8863
867.4	9197
867.5	9399
867.6	9867
867.7	10369
867.8	11212
867.9	11685
868	12407
868.1	12718
868.2	13371
868.3	13757
868.4	14288
868.5	15373
868.6	16089
868.7	16759
868.8	17780
868.9	18785
869	19183
869.1	19956
869.2	20626
869.3	21243
869.4	22127
869.5	22496
869.6	23269
869.7	23587
869.8	23812
869.9	23558
870	23200
870.1	23287
870.2	23304
870.3	23483
870.4	23033
870.5	22404
870.6	22392
870.7	21532
870.8	20776
870.9	19841
871	19344
871.1	18750
871.2	17815
871.3	16938
871.4	16239
871.5	15737
871.6	15223
871.7	14548
871.8	14433
871.9	13555
872	12943
872.1	12672
872.2	12164
872.3	11731
872.4	11079
872.5	10329
872.6	10323
872.7	10317
872.8	9861
872.9	9561
873	9272
873.1	9036
873.2	8961
873.3	8811
873.4	8476
873.5	8516
873.6	8562
873.7	8534
873.8	8603
873.9	8799
874	8609
874.1	8216
874.2	8280
874.3	8632
874.4	8580
874.5	8718
874.6	8528
874.7	8649
874.8	8568
874.9	8384
875	8349
875.1	8389
875.2	8666
875.3	8747
875.4	8724
875.5	8868
875.6	8903
875.7	9117
875.8	8972
875.9	8805
876	9313
876.1	9486
876.2	9347
876.3	9440
876.4	9492
876.5	9573
876.6	9642
876.7	10034
876.8	10259
876.9	10265
877	10346
877.1	10381
877.2	10658
877.3	10629
877.4	10721
877.5	11119
877.6	11333
877.7	11304
877.8	11293
877.9	11119
878	11362
878.1	11443
878.2	11674
878.3	11616
878.4	11645
878.5	11668
878.6	11373
878.7	11524
878.8	11581
878.9	11754
879	11633
879.1	11373
879.2	11108
879.3	11096
879.4	11177
879.5	11027
879.6	11021
879.7	10450
879.8	10005
879.9	9959
880	9850
880.1	9723
880.2	9573
880.3	9613
880.4	9503
880.5	9244
880.6	8868
880.7	8580
880.8	8407
880.9	8591
881	8470
881.1	8534
881.2	8182
881.3	7893
881.4	7870
881.5	7853
881.6	7916
881.7	7991
881.8	7853
881.9	7743
882	8020
882.1	8049
882.2	7991
882.3	8182
882.4	8285
882.5	8436
882.6	8395
882.7	8349
882.8	8343
882.9	8522
883	8511
883.1	8643
883.2	8851
883.3	9001
883.4	9428
883.5	9798
883.6	10005
883.7	10150
883.8	10450
883.9	10790
884	11500
884.1	12164
884.2	12840
884.3	13480
884.4	13925
884.5	14860
884.6	15760
884.7	17220
884.8	18196
884.9	19304
885	20770
885.1	22161
885.2	23731
885.3	25330
885.4	26554
885.5	28262
885.6	28943
885.7	29965
885.8	31402
885.9	31587
886	31887
886.1	31206
886.2	31102
886.3	30681
886.4	29867
886.5	28932
886.6	27471
886.7	26346
886.8	25226
886.9	24158
887	23096
887.1	21647
887.2	20366
887.3	19489
887.4	19241
887.5	18386
887.6	17948
887.7	17578
887.8	16978
887.9	16083
888	15772
888.1	15304
888.2	15177
888.3	14894
888.4	14681
888.5	14381
888.6	13902
888.7	14069
888.8	13734
888.9	14098
889	14052
889.1	13775
889.2	13734
889.3	13809
889.4	13855
889.5	13838
889.6	13850
889.7	13422
889.8	13659
889.9	14029
890	13873
890.1	13792
890.2	13382
890.3	13290
890.4	13319
890.5	13371
890.6	13653
890.7	13140
890.8	12891
890.9	13180
891	12868
891.1	13024
891.2	12661
891.3	12574
891.4	12487
891.5	12868
891.6	12863
891.7	12770
891.8	12776
891.9	12736
892	12476
892.1	12938
892.2	12713
892.3	13024
892.4	13480
892.5	13555
892.6	13613
892.7	13763
892.8	13965
892.9	14554
893	14969
893.1	15067
893.2	15587
893.3	15749
893.4	16372
893.5	16874
893.6	17370
893.7	18011
893.8	18115
893.9	18594
894	19269
894.1	19645
894.2	20297
894.3	20736
894.4	21018
894.5	20666
894.6	20245
894.7	20407
894.8	20256
894.9	20482
895	20308
895.1	20297
895.2	19737
895.3	19350
895.4	18513
895.5	17867
895.6	17376
895.7	16580
895.8	16124
895.9	15575
896	14681
896.1	14323
896.2	13526
896.3	13099
896.4	12614
896.5	11824
896.6	11454
896.7	11171
896.8	10802
896.9	10473
897	10144
897.1	9850
897.2	9642
897.3	9220
897.4	8915
897.5	8638
897.6	8447
897.7	8505
897.8	8222
897.9	8026
898	7772
898.1	7714
898.2	7627
898.3	7651
898.4	7593
898.5	7137
898.6	7200
898.7	7114
898.8	6825
898.9	6750
899	6814
899.1	6739
899.2	6692
899.3	6623
899.4	6554
899.5	6692
899.6	6727
899.7	6606
899.8	6323
899.9	6144
900	5896
900.1	5757
900.2	5902
900.3	5804
900.4	5798
900.5	5798
900.6	5607
900.7	5596
900.8	5405
900.9	5001
901	5301
901.1	5203
901.2	4972
901.3	4753
901.4	4857
901.5	4707
901.6	4892
901.7	4840
901.8	4718
901.9	4695
902	4603
902.1	4499
902.2	4718
902.3	4747
902.4	4557
902.5	4649
902.6	4724
902.7	4539
902.8	4661
902.9	4753
903	4632
903.1	4603
903.2	4534
903.3	4615
903.4	4736
903.5	4903
903.6	5070
903.7	4961
903.8	4701
903.9	4591
904	4488
904.1	4257
904.2	4441
904.3	4551
904.4	4666
904.5	4620
904.6	4384
904.7	4447
904.8	4441
904.9	4407
905	4124
905.1	3720
905.2	3668
905.3	3760
905.4	3651
905.5	3772
905.6	3628
905.7	3691
905.8	3870
905.9	3933
906	3604
906.1	3685
906.2	3662
906.3	3593
906.4	3581
906.5	3668
906.6	3806
906.7	3639
906.8	3622
906.9	3679
907	3783
907.1	3633
907.2	3333
907.3	3397
907.4	3633
907.5	4014
907.6	4078
907.7	3939
907.8	4008
907.9	4014
908	4182
908.1	4026
908.2	3968
908.3	4170
908.4	4083
908.5	4314
908.6	4072
908.7	4008
908.8	3974
908.9	4130
909	4020
909.1	3945
909.2	4153
909.3	4222
909.4	4159
909.5	4055
909.6	4170
909.7	4026
909.8	3928
909.9	3835
910	3933
910.1	4008
910.2	3778
910.3	3731
910.4	3922
910.5	3472
910.6	3437
910.7	3414
910.8	3529
910.9	3362
911	3177
911.1	3212
911.2	3154
911.3	3195
911.4	3050
911.5	3172
911.6	3235
911.7	3189
911.8	3339
911.9	3362
912	3183
912.1	2952
912.2	3079
912.3	3004
912.4	3045
912.5	2900
912.6	2410
912.7	2565
912.8	2664
912.9	2721
913	2756
913.1	2819
913.2	2681
913.3	2843
913.4	2912
913.5	2681
913.6	2814
913.7	2698
913.8	2860
913.9	2767
914	2733
914.1	2600
914.2	2664
914.3	2843
914.4	2796
914.5	2692
914.6	2571
914.7	2381
914.8	2444
914.9	2473
915	2317
915.1	2167
915.2	2121
915.3	2098
915.4	2248
915.5	2208
915.6	1965
915.7	1959
915.8	1809
915.9	1723
916	1959
916.1	2052
916.2	1994
916.3	1879
916.4	1821
916.5	1578
916.6	1775
916.7	1567
916.8	1555
916.9	1636
917	1659
917.1	1503
917.2	1659
917.3	1567
917.4	1423
917.5	1371
917.6	1457
917.7	1527
917.8	1578
917.9	1174
918	1036
918.1	1047
918.2	1088
918.3	1169
918.4	1475
918.5	1336
918.6	1215
918.7	915
918.8	897
918.9	1169
919	1221
919.1	949
919.2	1059
919.3	1267
919.4	1151
919.5	984
919.6	995
919.7	1013
919.8	1071
919.9	1186
920	1226
920.1	1226
920.2	1157
920.3	1180
920.4	1001
920.5	1151
920.6	938
920.7	1030
920.8	1255
920.9	1255
921	1042
921.1	1186
921.2	1076
921.3	1036
921.4	949
921.5	932
921.6	845
921.7	857
921.8	903
921.9	978
922	799
922.1	920
922.2	643
922.3	718
922.4	961
922.5	967
922.6	1024
922.7	1128
922.8	1082
922.9	1157
923	1330
923.1	1353
923.2	1486
923.3	1301
923.4	1019
923.5	1244
923.6	1232
923.7	1348
923.8	1325
923.9	1475
924	1307
924.1	1140
924.2	1255
924.3	1567
924.4	1584
924.5	1555
924.6	1596
924.7	1463
924.8	1746
924.9	1630
925	1567
925.1	1602
925.2	1659
925.3	1798
925.4	1867
925.5	1861
925.6	1763
925.7	1861
925.8	1971
925.9	2109
926	2248
926.1	2202
926.2	2306
926.3	2167
926.4	2254
926.5	2225
926.6	2173
926.7	1965
926.8	2144
926.9	2052
927	1959
927.1	1977
927.2	2069
927.3	1925
927.4	1555
927.5	1555
927.6	1602
927.7	1619
927.8	1503
927.9	1198
928	1134
928.1	1117
928.2	1134
928.3	926
928.4	834
928.5	863
928.6	701
928.7	811
928.8	736
928.9	915
929	857
929.1	666
929.2	643
929.3	730
929.4	643
929.5	620
929.6	638
929.7	522
929.8	615
929.9	470
930	418
930.1	372
930.2	384
930.3	407
930.4	464
930.5	361
930.6	297
930.7	26
930.8	10
930.9	26
931	10
931.1	10
931.2	95
931.3	10
931.4	10
931.5	10
931.6	95
931.7	124
931.8	66
931.9	10
932	95
932.1	32
932.2	130
932.3	211
932.4	10
932.5	10
932.6	10
932.7	3
932.8	10
932.9	10
933	10
933.1	10
933.2	10
933.3	10
933.4	8
933.5	10
933.6	10
933.7	10
933.8	10
933.9	10
934	10
934.1	37
934.2	10
934.3	10
934.4	124
934.5	164
934.6	49
934.7	49
934.8	10
934.9	10
935	10
935.1	10
935.2	10
935.3	10
935.4	10
935.5	10
935.6	10
935.7	10
935.8	10
935.9	10
936	10
936.1	10
936.2	10
936.3	10
936.4	10
936.5	10
936.6	10
936.7	10
936.8	10
936.9	10
937	10
937.1	10
937.2	10
937.3	10
937.4	10
937.5	10
937.6	10
937.7	10
937.8	10
937.9	10
938	10
938.1	10
938.2	10
938.3	10
938.4	10
938.5	10
938.6	10
938.7	10
938.8	10
938.9	10
939	10
939.1	10
939.2	10
939.3	10
939.4	10
939.5	10
939.6	10
939.7	10
939.8	10
939.9	10
940	10
940.1	10
940.2	10
940.3	10
940.4	10
940.5	10
940.6	10
940.7	10
940.8	10
940.9	10
941	10
941.1	10
941.2	10
941.3	10
941.4	10
941.5	10
941.6	10
941.7	10
941.8	10
941.9	10
942	10
942.1	10
942.2	10
942.3	10
942.4	10
942.5	10
942.6	10
942.7	10
942.8	10
942.9	10
943	10
943.1	10
943.2	10
943.3	10
943.4	10
943.5	10
943.6	10
943.7	10
943.8	10
943.9	10
944	10
944.1	10
944.2	10
944.3	10
944.4	10
944.5	10
944.6	10
944.7	10
944.8	10
944.9	10
945	10
945.1	10
945.2	10
945.3	10
945.4	10
945.5	10
945.6	10
945.7	10
945.8	10
945.9	10
946	10
946.1	10
946.2	10
946.3	10
946.4	10
946.5	10
946.6	10
946.7	10
946.8	10
946.9	10
947	10
947.1	10
947.2	10
947.3	10
947.4	10
947.5	10
947.6	10
947.7	10
947.8	10
947.9	10
948	10
948.1	10
948.2	10
948.3	10
948.4	10
948.5	10
948.6	10
948.7	10
948.8	10
948.9	10
949	10
949.1	10
949.2	10
949.3	10
949.4	10
949.5	10
949.6	10
949.7	10
949.8	10
949.9	10
950	10
950.1	10
950.2	10
950.3	10
950.4	10
950.5	10
950.6	10
950.7	10
950.8	10
950.9	10
951	10
951.1	10
951.2	10
951.3	10
951.4	10
951.5	10
951.6	10
951.7	10
951.8	10
951.9	10
952	10
952.1	10
952.2	10
952.3	10
952.4	10
952.5	10
952.6	10
952.7	10
952.8	10
952.9	10
953	10
953.1	10
953.2	10
953.3	10
953.4	10
953.5	10
953.6	10
953.7	10
953.8	10
953.9	10
954	10
954.1	10
954.2	10
954.3	10
954.4	10
954.5	10
954.6	10
954.7	10
954.8	10
954.9	10
955	10
955.1	10
955.2	10
955.3	10
955.4	10
955.5	10
955.6	10
955.7	10
955.8	10
955.9	10
956	10
956.1	10
956.2	10
956.3	10
956.4	10
956.5	10
956.6	10
956.7	10
956.8	10
956.9	10
957	10
957.1	10
957.2	10
957.3	10
957.4	10
957.5	10
957.6	10
957.7	10
957.8	10
957.9	10
958	10
958.1	10
958.2	10
958.3	10
958.4	10
958.5	10
958.6	10
958.7	10
958.8	10
958.9	10
959	10
959.1	10
959.2	10
959.3	10
959.4	10
959.5	10
959.6	10
959.7	10
959.8	10
959.9	10
960	10
960.1	10
960.2	10
960.3	10
960.4	10
960.5	10
960.6	10
960.7	10
960.8	10
960.9	10
961	10
961.1	10
961.2	10
961.3	10
961.4	10
961.5	10
961.6	10
961.7	10
961.8	10
961.9	10
962	10
962.1	10
962.2	10
962.3	10
962.4	10
962.5	10
962.6	10
962.7	10
962.8	10
962.9	10
963	10
963.1	10
963.2	10
963.3	10
963.4	10
963.5	10
963.6	10
963.7	10
963.8	10
963.9	10
964	10
964.1	10
964.2	10
964.3	10
964.4	10
964.5	10
964.6	10
964.7	10
964.8	10
964.9	10
965	10
965.1	10
965.2	10
965.3	10
965.4	10
965.5	10
965.6	10
965.7	10
965.8	10
965.9	10
966	10
966.1	10
966.2	10
966.3	10
966.4	10
966.5	10
966.6	10
966.7	10
966.8	10
966.9	10
967	10
967.1	10
967.2	10
967.3	10
967.4	10
967.5	10
967.6	10
967.7	10
967.8	10
967.9	10
968	10
968.1	10
968.2	10
968.3	10
968.4	10
968.5	10
968.6	10
968.7	10
968.8	10
968.9	10
969	10
969.1	10
969.2	10
969.3	10
969.4	10
969.5	10
969.6	10
969.7	10
969.8	10
969.9	10
970	10
970.1	10
970.2	10
970.3	10
970.4	10
970.5	10
970.6	10
970.7	10
970.8	10
970.9	10
971	10
971.1	10
971.2	10
971.3	10
971.4	10
971.5	10
971.6	10
971.7	10
971.8	10
971.9	10
972	10
972.1	10
972.2	10
972.3	10
972.4	10
972.5	10
972.6	10
972.7	10
972.8	10
972.9	10
973	10
973.1	10
973.2	10
973.3	10
973.4	10
973.5	10
973.6	10
973.7	10
973.8	10
973.9	10
974	10
974.1	10
974.2	10
974.3	10
974.4	10
974.5	10
974.6	10
974.7	10
974.8	10
974.9	10
975	10
975.1	10
975.2	10
975.3	10
975.4	10
975.5	10
975.6	10
975.7	10
975.8	10
975.9	10
976	10
976.1	10
976.2	10
976.3	10
976.4	10
976.5	10
976.6	10
976.7	10
976.8	10
976.9	10
977	10
977.1	10
977.2	10
977.3	10
977.4	10
977.5	10
977.6	10
977.7	10
977.8	10
977.9	10
978	10
978.1	10
978.2	10
978.3	10
978.4	10
978.5	10
978.6	10
978.7	10
978.8	10
978.9	10
979	10
979.1	10
979.2	10
979.3	10
979.4	10
979.5	10
979.6	10
979.7	10
979.8	10
979.9	10
980	10
980.1	10
980.2	10
980.3	10
980.4	10
980.5	10
980.6	10
980.7	10
980.8	10
980.9	10
981	10
981.1	10
981.2	10
981.3	10
981.4	10
981.5	10
981.6	10
981.7	10
981.8	10
981.9	10
982	10
982.1	10
982.2	10
982.3	10
982.4	10
982.5	10
982.6	10
982.7	10
982.8	10
982.9	10
983	10
983.1	10
983.2	10
983.3	10
983.4	10
983.5	10
983.6	10
983.7	10
983.8	10
983.9	10
984	10
984.1	10
984.2	10
984.3	10
984.4	10
984.5	10
984.6	10
984.7	10
984.8	10
984.9	10
985	10
985.1	10
985.2	10
985.3	10
985.4	10
985.5	10
985.6	10
985.7	10
985.8	10
985.9	10
986	10
986.1	10
986.2	10
986.3	10
986.4	10
986.5	10
986.6	10
986.7	10
986.8	10
986.9	10
987	10
987.1	10
987.2	10
987.3	10
987.4	10
987.5	10
987.6	10
987.7	10
987.8	10
987.9	10
988	10
988.1	10
988.2	10
988.3	10
988.4	10
988.5	10
988.6	10
988.7	10
988.8	10
988.9	10
989	10
989.1	10
989.2	10
989.3	10
989.4	10
989.5	10
989.6	10
989.7	10
989.8	10
989.9	10
990	10
990.1	10
990.2	10
990.3	10
990.4	10
990.5	10
990.6	10
990.7	10
990.8	10
990.9	10
991	10
991.1	10
991.2	10
991.3	10
991.4	10
991.5	10
991.6	10
991.7	10
991.8	10
991.9	10
992	10
992.1	10
992.2	10
992.3	10
992.4	10
992.5	10
992.6	10
992.7	10
992.8	10
992.9	10
993	10
993.1	10
993.2	10
993.3	10
993.4	10
993.5	10
993.6	10
993.7	10
993.8	10
993.9	10
994	10
994.1	10
994.2	10
994.3	10
994.4	10
994.5	10
994.6	10
994.7	10
994.8	10
994.9	10
995	10
995.1	10
995.2	10
995.3	10
995.4	10
995.5	10
995.6	10
995.7	10
995.8	10
995.9	10
996	10
996.1	10
996.2	10
996.3	10
996.4	10
996.5	10
996.6	10
996.7	10
996.8	10
996.9	10
997	10
997.1	10
997.2	10
997.3	10
997.4	10
997.5	10
997.6	10
997.7	10
997.8	10
997.9	10
998	10
998.1	10
998.2	10
998.3	10
998.4	10
998.5	10
998.6	10
998.7	10
998.8	10
998.9	10
999	10
999.1	10
999.2	10
999.3	10
999.4	10
999.5	10
999.6	10
999.7	10
999.8	10
999.9	10
1000	10
