# Optical absorption spectrum of Program fragment delivered error ``Can't call method "sample_" on an undefined value at abs.template line 1.'':GSGG (Nd:GaScGa Garnet)
# assuming unity concentration per meter.  This data was part of the NASA 
# Laser Spectra Database found on the web until December of 2005 which
# was created by Pat Cross working at NASA Langley Research Center, Internal
# Operations Group, Aerospace Electronics Systems Division, Remote Sensing.
#
# The spectra was collected by MS on 22 January 1988 and was 
# annotated on 28 January 1988.  The sample name was "" was a 3.2000
# long piece of :.   
# The incident light was unpolarized.
#
# Spectra were recorded from 325 to 830nm
# every 0.2nm at room temperature.
#
# FILE NAME ON PE-3600 = 001 GSGG2.SP ON PC = 001GSGG2.SP NO_POINTS = 2526. pts DATA_INTV = 0.000200 µm MIN_LAMBDA = 0.325000 µm MIN_DATA = 2794.9 MAX_LAMBDA = 0.830000 µm MAX_DATA = 82670.0 SCANSPEED = .01500000 µm/min SLITWIDTH= 0.00020 µmITA = 0. RESP = 0.5 sec ISMS = 0. DATE=88/01/22 INST = 509. ? = 0. THIS ND:CR:GSGG SAMPLE WAS OBTAINED FROM ALLIED. IT IS A SLICED CROSS-SECTION FROM A BOULE. THE MATERIAL COMPOSITION IS CR-2.47at.% (2*10(20)ions/cm3),ND-1.65 at.% (2*10(20)). converted to AU by Mark Storm. header added by hand. ND:CR:GSGG,.125IN THICK,HIGH RES., STORM.
#
##Wavelength (nm)	Absorbance (/meter) 
325	6311
325.2	6405
325.4	6304
325.6	6437
325.8	6468
326	6608
326.2	6824
326.4	6944
326.6	7077
326.8	7069
327	7094
327.2	7043
327.4	7075
327.6	7076
327.8	7219
328	7288
328.2	7420
328.4	7459
328.6	7515
328.8	7516
329	7331
329.2	7253
329.4	7362
329.6	7347
329.8	7448
330	7643
330.2	7974
330.4	8319
330.6	8380
330.8	8122
331	8007
331.2	8019
331.4	8024
331.6	8145
331.8	8120
332	8062
332.2	8287
332.4	8262
332.6	8522
332.8	8645
333	8456
333.2	8465
333.4	8506
333.6	8654
333.8	8957
334	8844
334.2	8269
334.4	7875
334.6	7813
334.8	7678
335	7493
335.2	7341
335.4	7182
335.6	7146
335.8	6913
336	6622
336.2	6425
336.4	6303
336.6	6226
336.8	6095
337	6022
337.2	5830
337.4	5799
337.6	5757
337.8	5625
338	5519
338.2	5517
338.4	5434
338.6	5436
338.8	5335
339	5337
339.2	5346
339.4	5284
339.6	5369
339.8	5238
340	5313
340.2	5237
340.4	5404
340.6	5257
340.8	5397
341	5507
341.2	5543
341.4	5550
341.6	5470
341.8	5419
342	5516
342.2	5449
342.4	5481
342.6	5438
342.8	5447
343	5520
343.2	5513
343.4	5571
343.6	5633
343.8	5672
344	5688
344.2	5976
344.4	6313
344.6	6628
344.8	6665
345	6263
345.2	5991
345.4	5771
345.6	5604
345.8	5597
346	5485
346.2	5467
346.4	5615
346.6	5708
346.8	5721
347	5738
347.2	5807
347.4	5906
347.6	6150
347.8	6610
348	7055
348.2	6681
348.4	6390
348.6	6306
348.8	6217
349	6313
349.2	6344
349.4	6541
349.6	7021
349.8	7192
350	7179
350.2	7101
350.4	7200
350.6	7237
350.8	7379
351	7606
351.2	7989
351.4	8519
351.6	9698
351.8	11668
352	13252
352.2	12513
352.4	11773
352.6	12353
352.8	14842
353	19804
353.2	25268
353.4	25591
353.6	23928
353.8	21969
354	21400
354.2	21281
354.4	20440
354.6	19302
354.8	19029
355	20440
355.2	20718
355.4	17726
355.6	14468
355.8	12804
356	12186
356.2	12021
356.4	11603
356.6	10851
356.8	10310
357	9811
357.2	9374
357.4	8771
357.6	8505
357.8	8368
358	8237
358.2	7943
358.4	7624
358.6	7940
358.8	8639
359	8388
359.2	7780
359.4	7554
359.6	7742
359.8	8544
360	10725
360.2	16799
360.4	20881
360.6	12847
360.8	10699
361	12091
361.2	14567
361.4	13461
361.6	8680
361.8	7805
362	8516
362.2	10402
362.4	13964
362.6	15341
362.8	10422
363	8327
363.2	9211
363.4	13505
363.6	14858
363.8	9526
364	7072
364.2	6422
364.4	6659
364.6	7472
364.8	6790
365	5876
365.2	5244
365.4	4959
365.6	4809
365.8	4701
366	4618
366.2	4580
366.4	4453
366.6	4482
366.8	4403
367	4367
367.2	4392
367.4	4372
367.6	4333
367.8	4413
368	4345
368.2	4270
368.4	4263
368.6	4396
368.8	4462
369	4346
369.2	4256
369.4	4266
369.6	4263
369.8	4284
370	4305
370.2	4143
370.4	4238
370.6	4168
370.8	4143
371	4181
371.2	4341
371.4	4283
371.6	4241
371.8	4240
372	4119
372.2	4144
372.4	4205
372.6	4197
372.8	4142
373	4165
373.2	4252
373.4	4194
373.6	4213
373.8	4217
374	4210
374.2	4128
374.4	4133
374.6	4197
374.8	4171
375	4245
375.2	4085
375.4	4226
375.6	4181
375.8	4177
376	4100
376.2	4168
376.4	4172
376.6	4173
376.8	4070
377	4247
377.2	4239
377.4	4370
377.6	4237
377.8	4408
378	4462
378.2	4245
378.4	4243
378.6	4256
378.8	4246
379	4146
379.2	3994
379.4	4036
379.6	4082
379.8	4036
380	4122
380.2	4074
380.4	4013
380.6	4066
380.8	4029
381	4066
381.2	4080
381.4	4132
381.6	4110
381.8	4145
382	4076
382.2	4022
382.4	4086
382.6	4135
382.8	4092
383	4212
383.2	4129
383.4	4159
383.6	4238
383.8	4363
384	4483
384.2	4273
384.4	4253
384.6	4360
384.8	4295
385	4217
385.2	4298
385.4	4431
385.6	4412
385.8	4390
386	4273
386.2	4382
386.4	4468
386.6	4489
386.8	4408
387	4476
387.2	4436
387.4	4456
387.6	4507
387.8	4553
388	4578
388.2	4551
388.4	4527
388.6	4583
388.8	4599
389	4606
389.2	4657
389.4	4639
389.6	4679
389.8	4735
390	4770
390.2	4766
390.4	4857
390.6	4844
390.8	4763
391	4876
391.2	4899
391.4	4901
391.6	4953
391.8	5042
392	5012
392.2	5010
392.4	5020
392.6	5098
392.8	5146
393	5259
393.2	5239
393.4	5305
393.6	5365
393.8	5399
394	5437
394.2	5370
394.4	5462
394.6	5484
394.8	5591
395	5574
395.2	5635
395.4	5674
395.6	5768
395.8	5806
396	5807
396.2	5924
396.4	6021
396.6	6028
396.8	6049
397	6124
397.2	6143
397.4	6200
397.6	6261
397.8	6317
398	6338
398.2	6479
398.4	6504
398.6	6598
398.8	6612
399	6649
399.2	6794
399.4	6860
399.6	6893
399.8	6941
400	7046
400.2	7061
400.4	7154
400.6	7273
400.8	7320
401	7434
401.2	7524
401.4	7584
401.6	7648
401.8	7733
402	7845
402.2	7928
402.4	8009
402.6	8067
402.8	8154
403	8339
403.2	8403
403.4	8479
403.6	8570
403.8	8672
404	8760
404.2	8895
404.4	8949
404.6	9092
404.8	9127
405	9279
405.2	9352
405.4	9507
405.6	9571
405.8	9666
406	9749
406.2	9909
406.4	10006
406.6	10156
406.8	10264
407	10356
407.2	10547
407.4	10595
407.6	10753
407.8	10834
408	11010
408.2	11140
408.4	11293
408.6	11373
408.8	11499
409	11706
409.2	11868
409.4	11895
409.6	12125
409.8	12240
410	12370
410.2	12507
410.4	12712
410.6	12830
410.8	13055
411	13168
411.2	13338
411.4	13544
411.6	13668
411.8	13820
412	13934
412.2	14169
412.4	14397
412.6	14493
412.8	14712
413	14781
413.2	15088
413.4	15225
413.6	15380
413.8	15514
414	15792
414.2	15940
414.4	16128
414.6	16295
414.8	16493
415	16728
415.2	16822
415.4	17099
415.6	17308
415.8	17568
416	17639
416.2	17894
416.4	18125
416.6	18314
416.8	18531
417	18670
417.2	18913
417.4	19121
417.6	19394
417.8	19606
418	19766
418.2	19990
418.4	20325
418.6	20538
418.8	20753
419	20952
419.2	21161
419.4	21480
419.6	21782
419.8	21927
420	22108
420.2	22459
420.4	22661
420.6	23072
420.8	23371
421	23409
421.2	23668
421.4	24032
421.6	24321
421.8	24659
422	24677
422.2	25012
422.4	25399
422.6	25593
422.8	25789
423	25983
423.2	26280
423.4	26644
423.6	26827
423.8	27122
424	27294
424.2	27736
424.4	27956
424.6	28216
424.8	28523
425	28829
425.2	29001
425.4	29303
425.6	29451
425.8	29796
426	30106
426.2	30427
426.4	30632
426.6	30968
426.8	31129
427	31519
427.2	31704
427.4	32054
427.6	32383
427.8	32637
428	32998
428.2	33344
428.4	33661
428.6	34006
428.8	34327
429	34654
429.2	34789
429.4	35239
429.6	35465
429.8	35756
430	35996
430.2	36402
430.4	36701
430.6	37020
430.8	37423
431	38093
431.2	39654
431.4	42171
431.6	39616
431.8	38995
432	39270
432.2	39405
432.4	39774
432.6	40071
432.8	40606
433	41529
433.2	44440
433.4	44808
433.6	42913
433.8	42445
434	42479
434.2	42891
434.4	43875
434.6	44257
434.8	43779
435	43889
435.2	44109
435.4	44445
435.6	44890
435.8	45516
436	46821
436.2	47903
436.4	46935
436.6	46694
436.8	46695
437	46709
437.2	46866
437.4	47342
437.6	47652
437.8	47771
438	48103
438.2	48333
438.4	48612
438.6	48864
438.8	49152
439	49444
439.2	49790
439.4	50092
439.6	50416
439.8	50606
440	50903
440.2	51170
440.4	51495
440.6	51641
440.8	51918
441	52200
441.2	52428
441.4	52872
441.6	53050
441.8	53308
442	53530
442.2	53713
442.4	54064
442.6	54190
442.8	54593
443	54787
443.2	55180
443.4	55115
443.6	55359
443.8	55742
444	55879
444.2	56156
444.4	56438
444.6	56723
444.8	57013
445	57234
445.2	57259
445.4	57532
445.6	57911
445.8	58065
446	58143
446.2	58429
446.4	58826
446.6	58880
446.8	59097
447	59179
447.2	59261
447.4	59761
447.6	59705
447.8	59959
448	60188
448.2	60333
448.4	60508
448.6	60832
448.8	61102
449	61224
449.2	61468
449.4	61438
449.6	61717
449.8	61905
450	61905
450.2	62287
450.4	62384
450.6	62644
450.8	62809
451	63042
451.2	63143
451.4	63346
451.6	63380
451.8	63758
452	63689
452.2	63828
452.4	64074
452.6	64110
452.8	64323
453	64539
453.2	64721
453.4	64758
453.6	65203
453.8	65353
454	65658
454.2	65851
454.4	66124
454.6	66204
454.8	66323
455	66126
455.2	66048
455.4	66048
455.6	65970
455.8	65971
456	66167
456.2	66405
456.4	66246
456.6	66606
456.8	66606
457	66688
457.2	66851
457.4	66892
457.6	66933
457.8	66852
458	66852
458.2	66771
458.4	66976
458.6	67183
458.8	67859
459	68741
459.2	69337
459.4	69430
459.6	68969
459.8	68034
460	67520
460.2	67020
460.4	66979
460.6	66735
460.8	66413
461	66176
461.2	65864
461.4	65903
461.6	65904
461.8	65904
462	65788
462.2	65673
462.4	65635
462.6	65789
462.8	65828
463	65984
463.2	65484
463.4	65146
463.6	64961
463.8	64668
464	64632
464.2	64380
464.4	64417
464.6	64345
464.8	64132
465	63957
465.2	63818
465.4	63576
465.6	63440
465.8	63543
466	63305
466.2	63305
466.4	63238
466.6	63171
466.8	63138
467	62938
467.2	62872
467.4	62545
467.6	62578
467.8	62709
468	62417
468.2	62417
468.4	62321
468.6	62289
468.8	62130
469	62162
469.2	62130
469.4	61910
469.6	62131
469.8	62005
470	61942
470.2	61755
470.4	61817
470.6	61849
470.8	61601
471	61663
471.2	61725
471.4	61819
471.6	62230
471.8	62520
472	62488
472.2	61977
472.4	61542
472.6	61328
472.8	61358
473	61328
473.2	61666
473.4	61359
473.6	61208
473.8	61027
474	61269
474.2	61361
474.4	61422
474.6	60643
474.8	60179
475	59671
475.2	59727
475.4	60152
475.6	60411
475.8	60010
476	59396
476.2	58854
476.4	58563
476.6	58616
476.8	58616
477	58459
477.2	58433
477.4	58200
477.6	58174
477.8	58539
478	58382
478.2	57970
478.4	57344
478.6	56905
478.8	56619
479	56501
479.2	56383
479.4	56715
479.6	58100
479.8	59265
480	59265
480.2	59651
480.4	61008
480.6	59764
480.8	56861
481	56316
481.2	56293
481.4	55383
481.6	55052
481.8	54987
482	55517
482.2	55971
482.4	55563
482.6	55384
482.8	55496
483	55341
483.2	55033
483.4	55520
483.6	56111
483.8	55165
484	54710
484.2	54904
484.4	54840
484.6	53892
484.8	53207
485	53227
485.2	52757
485.4	52299
485.6	51981
485.8	51999
486	52074
486.2	51907
486.4	51945
486.6	51523
486.8	51182
487	50988
487.2	50865
487.4	50433
487.6	49927
487.8	49548
488	49289
488.2	48986
488.4	48781
488.6	48578
488.8	48302
489	48119
489.2	47834
489.4	47656
489.6	47407
489.8	47104
490	46847
490.2	46511
490.4	46456
490.6	46195
490.8	45896
491	45669
491.2	45471
491.4	45080
491.6	44939
491.8	44660
492	44373
492.2	44151
492.4	43847
492.6	43691
492.8	43500
493	43171
493.2	42963
493.4	42677
493.6	42396
493.8	42185
494	41845
494.2	41640
494.4	41374
494.6	41153
494.8	40738
495	40494
495.2	40293
495.4	39946
495.6	39732
495.8	39404
496	39149
496.2	38859
496.4	38574
496.6	38311
496.8	38025
497	37743
497.2	37474
497.4	37217
497.6	36998
497.8	36723
498	36476
498.2	36224
498.4	36016
498.6	35897
498.8	35755
499	35637
499.2	35590
499.4	35358
499.6	35090
499.8	34774
500	34419
500.2	34019
500.4	33601
500.6	33308
500.8	32918
501	32662
501.2	32390
501.4	32142
501.6	31974
501.8	31699
502	31528
502.2	31284
502.4	31037
502.6	30794
502.8	30541
503	30292
503.2	30099
503.4	29838
503.6	29723
503.8	29439
504	29266
504.2	29011
504.4	28683
504.6	28452
504.8	28234
505	28003
505.2	27779
505.4	27549
505.6	27422
505.8	27230
506	26961
506.2	26784
506.4	26604
506.6	26382
506.8	26121
507	25900
507.2	25718
507.4	25516
507.6	25275
507.8	25122
508	24975
508.2	24758
508.4	24622
508.6	24492
508.8	24397
509	24315
509.2	24289
509.4	24195
509.6	24243
509.8	24346
510	24589
510.2	25120
510.4	26050
510.6	27398
510.8	27668
511	26571
511.2	24934
511.4	23867
511.6	23244
511.8	22866
512	22751
512.2	22779
512.4	22963
512.6	23003
512.8	22669
513	22415
513.2	22214
513.4	22268
513.6	22268
513.8	22249
514	22323
514.2	22401
514.4	22541
514.6	22778
514.8	23244
515	24037
515.2	24405
515.4	23660
515.6	22333
515.8	21017
516	20114
516.2	19571
516.4	19514
516.6	19545
516.8	19548
517	19227
517.2	18876
517.4	18398
517.6	17798
517.8	17178
518	16729
518.2	16455
518.4	16367
518.6	16407
518.8	16544
519	17053
519.2	17846
519.4	18101
519.6	17310
519.8	16437
520	15840
520.2	15448
520.4	15081
520.6	14604
520.8	14433
521	14159
521.2	13865
521.4	13541
521.6	13269
521.8	13045
522	12889
522.2	12688
522.4	12594
522.6	12460
522.8	12378
523	12389
523.2	12433
523.4	12479
523.6	12385
523.8	12131
524	11951
524.2	11778
524.4	11659
524.6	11558
524.8	11449
525	11417
525.2	11548
525.4	11784
525.6	12301
525.8	13442
526	15891
526.2	21501
526.4	31685
526.6	32588
526.8	22654
527	16511
527.2	13483
527.4	11973
527.6	11092
527.8	10716
528	10396
528.2	10267
528.4	10388
528.6	10620
528.8	11143
529	12282
529.2	14850
529.4	19085
529.6	25584
529.8	28938
530	24570
530.2	23615
530.4	21937
530.6	16430
530.8	13812
531	13712
531.2	13830
531.4	12038
531.6	10199
531.8	9298
532	9085
532.2	9604
532.4	11123
532.6	12906
532.8	12027
533	10360
533.2	9696
533.4	9282
533.6	9012
533.8	8976
534	9329
534.2	10090
534.4	11153
534.6	11817
534.8	12573
535	13953
535.2	13871
535.4	13378
535.6	12711
535.8	10458
536	8912
536.2	8274
536.4	8049
536.6	8162
536.8	8665
537	9212
537.2	9540
537.4	9665
537.6	9036
537.8	8019
538	7235
538.2	6902
538.4	6693
538.6	6513
538.8	6413
539	6343
539.2	6330
539.4	6423
539.6	6660
539.8	7091
540	7067
540.2	6647
540.4	6295
540.6	6061
540.8	5887
541	5743
541.2	5700
541.4	5593
541.6	5591
541.8	5568
542	5526
542.2	5479
542.4	5449
542.6	5370
542.8	5378
543	5399
543.2	5364
543.4	5308
543.6	5317
543.8	5291
544	5280
544.2	5331
544.4	5249
544.6	5204
544.8	5215
545	5193
545.2	5169
545.4	5200
545.6	5171
545.8	5122
546	5198
546.2	5163
546.4	5173
546.6	5158
546.8	5209
547	5246
547.2	5301
547.4	5377
547.6	5593
547.8	5970
548	6474
548.2	6412
548.4	5785
548.6	5406
548.8	5211
549	5233
549.2	5171
549.4	5143
549.6	5148
549.8	5159
550	5159
550.2	5153
550.4	5190
550.6	5202
550.8	5206
551	5237
551.2	5343
551.4	5406
551.6	5390
551.8	5424
552	5473
552.2	5549
552.4	5448
552.6	5391
552.8	5319
553	5329
553.2	5330
553.4	5337
553.6	5381
553.8	5309
554	5423
554.2	5423
554.4	5518
554.6	5694
554.8	5699
555	5614
555.2	5551
555.4	5537
555.6	5524
555.8	5508
556	5572
556.2	5558
556.4	5630
556.6	5680
556.8	5671
557	5693
557.2	5726
557.4	5813
557.6	5790
557.8	5797
558	5893
558.2	5955
558.4	6004
558.6	5958
558.8	6001
559	6004
559.2	6070
559.4	6014
559.6	6083
559.8	6131
560	6184
560.2	6257
560.4	6277
560.6	6366
560.8	6345
561	6297
561.2	6417
561.4	6465
561.6	6491
561.8	6545
562	6595
562.2	6590
562.4	6676
562.6	6584
562.8	6704
563	6750
563.2	6762
563.4	6782
563.6	6890
563.8	6941
564	7067
564.2	7162
564.4	7286
564.6	7307
564.8	7390
565	7418
565.2	7540
565.4	7559
565.6	7671
565.8	7741
566	7845
566.2	7925
566.4	7914
566.6	7970
566.8	8023
567	8171
567.2	8266
567.4	8342
567.6	8533
567.8	8826
568	9294
568.2	10039
568.4	10970
568.6	12667
568.8	15724
569	21675
569.2	33042
569.4	45574
569.6	39825
569.8	25690
570	17671
570.2	13788
570.4	11801
570.6	10852
570.8	10347
571	10131
571.2	10004
571.4	10194
571.6	10395
571.8	10829
572	11534
572.2	12666
572.4	15140
572.6	19603
572.8	23212
573	21080
573.2	17138
573.4	14610
573.6	13055
573.8	12221
574	11809
574.2	11714
574.4	11827
574.6	12043
574.8	12438
575	12543
575.2	12028
575.4	11422
575.6	11070
575.8	10886
576	10917
576.2	10922
576.4	10983
576.6	11147
576.8	11214
577	11430
577.2	11809
577.4	12242
577.6	12710
577.8	13242
578	13753
578.2	14725
578.4	16668
578.6	20168
578.8	24333
579	23359
579.2	18875
579.4	15994
579.6	14446
579.8	13688
580	13414
580.2	13309
580.4	13689
580.6	14295
580.8	14693
581	14614
581.2	14450
581.4	14400
581.6	14694
581.8	15417
582	16668
582.2	18383
582.4	19166
582.6	18661
582.8	18610
583	18433
583.2	17475
583.4	16792
583.6	16396
583.8	16405
584	16874
584.2	17716
584.4	18863
584.6	19504
584.8	19309
585	19178
585.2	19541
585.4	20698
585.6	23611
585.8	28899
586	33671
586.2	31114
586.4	25416
586.6	21949
586.8	20791
587	21085
587.2	22417
587.4	25380
587.6	30877
587.8	41699
588	62176
588.2	82670
588.4	67177
588.6	44842
588.8	32735
589	27717
589.2	26564
589.4	28028
589.6	29473
589.8	27043
590	23718
590.2	21652
590.4	20501
590.6	19932
590.8	19864
591	20241
591.2	21582
591.4	24821
591.6	31167
591.8	39991
592	36331
592.2	26413
592.4	21912
592.6	19815
592.8	18980
593	18675
593.2	18813
593.4	19155
593.6	19958
593.8	21338
594	22794
594.2	23065
594.4	22353
594.6	22066
594.8	22092
595	21247
595.2	20519
595.4	20439
595.6	20345
595.8	19623
596	19011
596.2	18716
596.4	18703
596.6	18857
596.8	19171
597	19614
597.2	19792
597.4	19694
597.6	19405
597.8	19136
598	18765
598.2	18493
598.4	18162
598.6	18051
598.8	17959
599	18070
599.2	18187
599.4	18237
599.6	18290
599.8	18334
600	18554
600.2	18802
600.4	18950
600.6	19437
600.8	19771
601	19731
601.2	19451
601.4	19184
601.6	19077
601.8	18980
602	19042
602.2	19026
602.4	19159
602.6	19208
602.8	19303
603	19439
603.2	19492
603.4	19572
603.6	19689
603.8	19709
604	19719
604.2	19800
604.4	19868
604.6	19970
604.8	20138
605	20283
605.2	20373
605.4	20537
605.6	20827
605.8	20813
606	20721
606.2	20721
606.4	20756
606.6	20831
606.8	20899
607	20957
607.2	21108
607.4	21213
607.6	21304
607.8	21389
608	21503
608.2	21566
608.4	21685
608.6	21726
608.8	21797
609	21948
609.2	22054
609.4	22107
609.6	22295
609.8	22314
610	22411
610.2	22465
610.4	22633
610.6	22708
610.8	22830
611	22874
611.2	22906
611.4	23142
611.6	23198
611.8	23247
612	23357
612.2	23475
612.4	23660
612.6	23806
612.8	24057
613	24253
613.2	24185
613.4	24189
613.6	24151
613.8	24164
614	24245
614.2	24305
614.4	24537
614.6	24524
614.8	24694
615	25011
615.2	25190
615.4	25199
615.6	25163
615.8	25177
616	25141
616.2	25231
616.4	25267
616.6	25398
616.8	25548
617	25553
617.2	25672
617.4	25764
617.6	25852
617.8	25899
618	25936
618.2	26096
618.4	26176
618.6	26237
618.8	26361
619	26471
619.2	26635
619.4	26693
619.6	26874
619.8	26771
620	26869
620.2	26972
620.4	27081
620.6	27195
620.8	27235
621	27351
621.2	27537
621.4	27356
621.6	27690
621.8	27696
622	27783
622.2	27716
622.4	27778
622.6	27928
622.8	27856
623	27923
623.2	28121
623.4	28110
623.6	28263
623.8	28310
624	28279
624.2	28438
624.4	28598
624.6	28765
624.8	29197
625	29510
625.2	29387
625.4	29376
625.6	29612
625.8	29886
626	29817
626.2	29590
626.4	29483
626.6	29568
626.8	29500
627	29433
627.2	29444
627.4	29506
627.6	29517
627.8	29535
628	29625
628.2	29614
628.4	29750
628.6	29830
628.8	29802
629	29928
629.2	29951
629.4	30131
629.6	30160
629.8	30108
630	29981
630.2	30201
630.4	30289
630.6	30436
630.8	30448
631	30448
631.2	30431
631.4	30413
631.6	30401
631.8	30544
632	30490
632.2	30586
632.4	30526
632.6	30639
632.8	30675
633	30808
633.2	30983
633.4	31050
633.6	31002
633.8	30862
634	30802
634.2	30802
634.4	30827
634.6	30785
634.8	30857
635	30869
635.2	30924
635.4	30821
635.6	30979
635.8	30948
636	31076
636.2	31218
636.4	31224
636.6	31218
636.8	31274
637	31317
637.2	31249
637.4	31323
637.6	31367
637.8	31448
638	31435
638.2	31373
638.4	31361
638.6	31473
638.8	31467
639	31393
639.2	31530
639.4	31430
639.6	31530
639.8	31624
640	31606
640.2	31505
640.4	31612
640.6	31675
640.8	31688
641	31606
641.2	31682
641.4	31682
641.6	31669
641.8	31626
642	31569
642.2	31557
642.4	31632
642.6	31613
642.8	31538
643	31645
643.2	31570
643.4	31595
643.6	31551
643.8	31564
644	31608
644.2	31558
644.4	31558
644.6	31502
644.8	31477
645	31483
645.2	31440
645.4	31446
645.6	31440
645.8	31372
646	31341
646.2	31422
646.4	31341
646.6	31323
646.8	31292
647	31305
647.2	31329
647.4	31323
647.6	31219
647.8	31206
648	31293
648.2	31213
648.4	31213
648.6	31152
648.8	31232
649	31170
649.2	31146
649.4	31073
649.6	31097
649.8	31006
650	31067
650.2	31079
650.4	31116
650.6	30988
650.8	31049
651	30970
651.2	30958
651.4	30879
651.6	30849
651.8	30916
652	30958
652.2	30862
652.4	30765
652.6	30808
652.8	30497
653	30551
653.2	30521
653.4	30456
653.6	30433
653.8	30362
654	30339
654.2	30222
654.4	30339
654.6	30187
654.8	30100
655	30089
655.2	29996
655.4	30002
655.6	29858
655.8	29756
656	29830
656.2	29563
656.4	29507
656.6	29558
656.8	29446
657	29401
657.2	29463
657.4	29351
657.6	29223
657.8	29020
658	29004
658.2	29020
658.4	28851
658.6	28900
658.8	28754
659	28700
659.2	28609
659.4	28625
659.6	28486
659.8	28433
660	28354
660.2	28306
660.4	28344
660.6	28181
660.8	28186
661	28097
661.2	28092
661.4	28045
661.6	27962
661.8	27875
662	27833
662.2	27746
662.4	27752
662.6	27644
662.8	27604
663	27523
663.2	27584
663.4	27553
663.6	27478
663.8	27407
664	27317
664.2	27262
664.4	27237
664.6	27252
664.8	27089
665	27133
665.2	27000
665.4	26892
665.6	26795
665.8	26732
666	26732
666.2	26654
666.4	26684
666.6	26510
666.8	26396
667	26220
667.2	26230
667.4	26135
667.6	26042
667.8	25911
668	25935
668.2	25796
668.4	25810
668.6	25667
668.8	25626
669	25512
669.2	25331
669.4	25390
669.6	25304
669.8	25241
670	25295
670.2	25085
670.4	25184
670.6	25368
670.8	25513
671	25682
671.2	25719
671.4	25614
671.6	25180
671.8	24958
672	24616
672.2	24461
672.4	24290
672.6	24183
672.8	24145
673	24196
673.2	24137
673.4	24095
673.6	24036
673.8	23969
674	24099
674.2	24155
674.4	24372
674.6	24587
674.8	24924
675	25115
675.2	25429
675.4	25754
675.6	26258
675.8	27134
676	27414
676.2	27070
676.4	26033
676.6	25227
676.8	24780
677	24335
677.2	24067
677.4	24017
677.6	23767
677.8	23705
678	23709
678.2	23763
678.4	23750
678.6	23913
678.8	24026
679	23980
679.2	24119
679.4	24323
679.6	24534
679.8	24426
680	24285
680.2	23968
680.4	23926
680.6	23952
680.8	24006
681	24133
681.2	24316
681.4	24897
681.6	25189
681.8	24277
682	23699
682.2	23546
682.4	23690
682.6	24150
682.8	24735
683	25790
683.2	26625
683.4	25892
683.6	23991
683.8	22764
684	21993
684.2	21601
684.4	21239
684.6	20979
684.8	20819
685	20614
685.2	20569
685.4	20415
685.6	20232
685.8	20461
686	20461
686.2	20805
686.4	21002
686.6	20823
686.8	20336
687	20075
687.2	19737
687.4	19751
687.6	19644
687.8	19571
688	19484
688.2	19415
688.4	19163
688.6	18989
688.8	18902
689	18688
689.2	18726
689.4	18701
689.6	18449
689.8	18197
690	17943
690.2	17821
690.4	17743
690.6	17539
690.8	17626
691	17638
691.2	17488
691.4	17521
691.6	17314
691.8	17126
692	16897
692.2	16765
692.4	16779
692.6	16716
692.8	16822
693	16811
693.2	16932
693.4	17153
693.6	17071
693.8	16846
694	16583
694.2	16400
694.4	16212
694.6	16066
694.8	15947
695	15871
695.2	15681
695.4	15640
695.6	15516
695.8	15322
696	15140
696.2	15014
696.4	14845
696.6	14747
696.8	14550
697	14461
697.2	14418
697.4	14247
697.6	14137
697.8	14052
698	13924
698.2	13828
698.4	13686
698.6	13577
698.8	13437
699	13320
699.2	13239
699.4	13118
699.6	13048
699.8	12961
700	12889
700.2	12854
700.4	12648
700.6	12685
700.8	12378
701	12373
701.2	12296
701.4	12195
701.6	12130
701.8	12005
702	11903
702.2	11861
702.4	11748
702.6	11674
702.8	11493
703	11433
703.2	11329
703.4	11349
703.6	11169
703.8	11133
704	11059
704.2	10981
704.4	10957
704.6	10846
704.8	10769
705	10663
705.2	10607
705.4	10576
705.6	10506
705.8	10408
706	10261
706.2	10287
706.4	10283
706.6	10212
706.8	10095
707	10075
707.2	9941
707.4	9929
707.6	9919
707.8	9784
708	9709
708.2	9668
708.4	9593
708.6	9580
708.8	9533
709	9404
709.2	9391
709.4	9325
709.6	9306
709.8	9287
710	9166
710.2	9129
710.4	9072
710.6	9019
710.8	8954
711	8924
711.2	8951
711.4	8845
711.6	8838
711.8	8717
712	8727
712.2	8632
712.4	8596
712.6	8615
712.8	8443
713	8408
713.2	8345
713.4	8247
713.6	8241
713.8	8223
714	8120
714.2	8051
714.4	7959
714.6	7970
714.8	8017
715	7814
715.2	7821
715.4	7727
715.6	7725
715.8	7663
716	7697
716.2	7542
716.4	7535
716.6	7554
716.8	7479
717	7482
717.2	7423
717.4	7325
717.6	7220
717.8	7280
718	7171
718.2	7165
718.4	7192
718.6	7075
718.8	7110
719	7021
719.2	6830
719.4	6922
719.6	6851
719.8	6783
720	6795
720.2	6834
720.4	6736
720.6	6622
720.8	6637
721	6525
721.2	6512
721.4	6507
721.6	6414
721.8	6467
722	6462
722.2	6447
722.4	6328
722.6	6348
722.8	6192
723	6345
723.2	6218
723.4	6215
723.6	6250
723.8	6089
724	6064
724.2	6116
724.4	6069
724.6	6043
724.8	6023
725	6044
725.2	6072
725.4	6151
725.6	5970
725.8	5965
726	6004
726.2	6058
726.4	5980
726.6	6138
726.8	6102
727	6078
727.2	6137
727.4	6138
727.6	6179
727.8	6255
728	6103
728.2	6216
728.4	6295
728.6	6346
728.8	6381
729	6329
729.2	6321
729.4	6233
729.6	6164
729.8	6351
730	6279
730.2	6248
730.4	6244
730.6	6233
730.8	6302
731	6320
731.2	6248
731.4	6480
731.6	6536
731.8	6622
732	6738
732.2	6783
732.4	6996
732.6	6989
732.8	7237
733	7435
733.2	7697
733.4	8099
733.6	8652
733.8	9425
734	10645
734.2	12704
734.4	15696
734.6	20152
734.8	26154
735	31711
735.2	33927
735.4	31158
735.6	26159
735.8	21957
736	19864
736.2	19760
736.4	22101
736.6	27202
736.8	34401
737	40813
737.2	45363
737.4	47298
737.6	37954
737.8	28728
738	22105
738.2	16397
738.4	12815
738.6	10663
738.8	9400
739	8519
739.2	8096
739.4	7801
739.6	7606
739.8	7661
740	7945
740.2	8320
740.4	8996
740.6	9603
740.8	9723
741	9651
741.2	9017
741.4	8803
741.6	8674
741.8	8826
742	9471
742.2	10773
742.4	12740
742.6	16234
742.8	22195
743	28194
743.2	30726
743.4	31476
743.6	28752
743.8	24327
744	20874
744.2	19510
744.4	19133
744.6	18120
744.8	16027
745	14006
745.2	12663
745.4	12390
745.6	12774
745.8	13940
746	15660
746.2	17267
746.4	19128
746.6	21935
746.8	25930
747	30674
747.2	34906
747.4	39367
747.6	42950
747.8	39012
748	27967
748.2	19262
748.4	14435
748.6	12182
748.8	11332
749	10975
749.2	10773
749.4	10723
749.6	11076
749.8	11802
750	13202
750.2	15153
750.4	16853
750.6	18086
750.8	19562
751	21399
751.2	23272
751.4	24915
751.6	25039
751.8	23871
752	21937
752.2	19736
752.4	17444
752.6	15749
752.8	14929
753	15130
753.2	16336
753.4	17755
753.6	18272
753.8	18170
754	17516
754.2	15877
754.4	13657
754.6	11696
754.8	10152
755	9194
755.2	8700
755.4	8549
755.6	8783
755.8	9064
756	9747
756.2	10776
756.4	12493
756.6	15174
756.8	18845
757	22554
757.2	23740
757.4	21704
757.6	18021
757.8	15140
758	13021
758.2	12105
758.4	12303
758.6	12942
758.8	13420
759	13494
759.2	12627
759.4	11156
759.6	9715
759.8	8492
760	7678
760.2	7024
760.4	6518
760.6	6157
760.8	5970
761	5892
761.2	5849
761.4	5959
761.6	6149
761.8	6412
762	6490
762.2	6502
762.4	6260
762.6	5874
762.8	5413
763	5064
763.2	4810
763.4	4477
763.6	4426
763.8	4167
764	4142
764.2	4066
764.4	4114
764.6	4006
764.8	3813
765	3741
765.2	3641
765.4	3595
765.6	3482
765.8	3439
766	3550
766.2	3363
766.4	3435
766.6	3459
766.8	3365
767	3247
767.2	3245
767.4	3337
767.6	3281
767.8	3354
768	3243
768.2	3279
768.4	3396
768.6	3296
768.8	3315
769	3290
769.2	3298
769.4	3235
769.6	3332
769.8	3331
770	3370
770.2	3242
770.4	3233
770.6	3279
770.8	3272
771	3188
771.2	3318
771.4	3426
771.6	3405
771.8	3340
772	3285
772.2	3337
772.4	3221
772.6	3173
772.8	3333
773	3238
773.2	3217
773.4	3307
773.6	3304
773.8	3380
774	3418
774.2	3403
774.4	3334
774.6	3345
774.8	3244
775	3354
775.2	3358
775.4	3328
775.6	3368
775.8	3307
776	3381
776.2	3488
776.4	3408
776.6	3380
776.8	3535
777	3456
777.2	3500
777.4	3600
777.6	3587
777.8	3835
778	3736
778.2	3919
778.4	4055
778.6	4029
778.8	4345
779	4605
779.2	4981
779.4	5583
779.6	6106
779.8	6560
780	7053
780.2	7083
780.4	6917
780.6	6897
780.8	6686
781	6472
781.2	5951
781.4	5435
781.6	4900
781.8	4636
782	4351
782.2	4302
782.4	4168
782.6	4103
782.8	4131
783	4090
783.2	3865
783.4	3831
783.6	3911
783.8	3969
784	4035
784.2	4132
784.4	4104
784.6	4130
784.8	4173
785	4211
785.2	4374
785.4	4480
785.6	4557
785.8	4727
786	4937
786.2	5035
786.4	5227
786.6	5410
786.8	5712
787	5931
787.2	5853
787.4	5889
787.6	5713
787.8	5462
788	5511
788.2	5378
788.4	5376
788.6	5314
788.8	5322
789	5269
789.2	5386
789.4	5421
789.6	5602
789.8	5912
790	6152
790.2	6247
790.4	6647
790.6	7062
790.8	7445
791	7949
791.2	8316
791.4	8958
791.6	9760
791.8	10662
792	11802
792.2	13482
792.4	16322
792.6	20098
792.8	22692
793	22198
793.2	19848
793.4	16924
793.6	14316
793.8	12481
794	11419
794.2	11547
794.4	12605
794.6	15014
794.8	19184
795	26503
795.2	37161
795.4	45857
795.6	43371
795.8	33739
796	24808
796.2	18869
796.4	15227
796.6	12820
796.8	11537
797	10910
797.2	10887
797.4	11542
797.6	13040
797.8	14295
798	13986
798.2	11877
798.4	9981
798.6	8971
798.8	8463
799	8875
799.2	9519
799.4	10717
799.6	11581
799.8	12086
800	11811
800.2	10852
800.4	10088
800.6	9403
800.8	8942
801	8904
801.2	9121
801.4	9730
801.6	11027
801.8	12729
802	13825
802.2	14521
802.4	14671
802.6	15153
802.8	16649
803	18865
803.2	22362
803.4	27634
803.6	34719
803.8	43374
804	52449
804.2	57287
804.4	55024
804.6	46155
804.8	36167
805	28974
805.2	23753
805.4	20516
805.6	18303
805.8	17633
806	18244
806.2	19910
806.4	23260
806.6	29415
806.8	39219
807	54306
807.2	69468
807.4	72683
807.6	56903
807.8	40576
808	29999
808.2	24834
808.4	23016
808.6	22981
808.8	23269
809	23005
809.2	22654
809.4	21973
809.6	20947
809.8	19975
810	19225
810.2	19382
810.4	20912
810.6	23415
810.8	26163
811	26802
811.2	24390
811.4	20619
811.6	17232
811.8	14567
812	12790
812.2	11207
812.4	10418
812.6	9852
812.8	9635
813	9908
813.2	10324
813.4	11423
813.6	13142
813.8	15458
814	17825
814.2	18343
814.4	17701
814.6	17647
814.8	18605
815	19858
815.2	20422
815.4	19217
815.6	16685
815.8	13847
816	11180
816.2	9383
816.4	8220
816.6	7539
816.8	7081
817	7064
817.2	7410
817.4	7661
817.6	8438
817.8	9702
818	11024
818.2	12654
818.4	13409
818.6	12222
818.8	10578
819	8743
819.2	7271
819.4	6098
819.6	5752
819.8	5184
820	5056
820.2	5065
820.4	5131
820.6	5402
820.8	5634
821	5630
821.2	5557
821.4	5298
821.6	4953
821.8	4558
822	4389
822.2	3994
822.4	4048
822.6	3888
822.8	3790
823	3879
823.2	3855
823.4	4067
823.6	4073
823.8	4268
824	4478
824.2	4302
824.4	4301
824.6	3862
824.8	3655
825	3607
825.2	3566
825.4	3469
825.6	3168
825.8	3283
826	3095
826.2	3159
826.4	3114
826.6	3128
826.8	3004
827	3187
827.2	3016
827.4	2844
827.6	3062
827.8	2982
828	3015
828.2	2968
828.4	2970
828.6	3171
828.8	3137
829	3069
829.2	2987
829.4	3005
829.6	2794
829.8	2794
830	2841
