# Optical absorption spectrum of Program fragment delivered error ``Can't call method "sample_" on an undefined value at abs.template line 1.'':LUAG (Tm:Lu3Al5O12)
# assuming unity concentration per meter.  This data was part of the NASA 
# Laser Spectra Database found on the web until December of 2005 which
# was created by Pat Cross working at NASA Langley Research Center, Internal
# Operations Group, Aerospace Electronics Systems Division, Remote Sensing.
#
# The spectra was collected by BMW on  5 June 1993 and was 
# annotated on 12 March 1993.  The sample name was "" was a 9.9300
# long piece of :.   
# The incident light had unknown polarization.
#
# Spectra were recorded from 440 to 500nm
# every 0.1nm at room temperature.
#
# FILE NAME ON IBM-PC = LUAG10.SP ON MAC= P12033.05 NO_POINTS = 601. pts DATA_INTV = .00010 _m MIN_LAMBDA = .440000 _m MIN_DATA = .66750 MAX_LAMBDA = .500000 _m MAX_DATA = .84050 SCANSPEED = 15.000000 nm/min SLITWIDTH= .20000 nmITA = 0. RESP = .500 sec ISMS = 0. DATE=93/05/06 INST = 509. ? = 0. ITHACA CORP SAMPLE 0:25:15 12-03-1993.
#
##Wavelength (nm)	Absorbance (/meter) 
440	19
440.1	1
440.2	22
440.3	40
440.4	109
440.5	19
440.6	70
440.7	240
440.8	135
440.9	192
441	170
441.1	38
441.2	12
441.3	122
441.4	238
441.5	182
441.6	1
441.7	138
441.8	107
441.9	46
442	1
442.1	1
442.2	18
442.3	65
442.4	1
442.5	255
442.6	54
442.7	1
442.8	40
442.9	114
443	17
443.1	105
443.2	57
443.3	50
443.4	48
443.5	156
443.6	1
443.7	1
443.8	71
443.9	118
444	128
444.1	117
444.2	120
444.3	206
444.4	108
444.5	216
444.6	48
444.7	129
444.8	208
444.9	167
445	62
445.1	148
445.2	119
445.3	83
445.4	66
445.5	181
445.6	118
445.7	131
445.8	72
445.9	65
446	252
446.1	69
446.2	98
446.3	160
446.4	215
446.5	168
446.6	156
446.7	57
446.8	147
446.9	4
447	136
447.1	124
447.2	76
447.3	174
447.4	28
447.5	177
447.6	139
447.7	240
447.8	127
447.9	177
448	150
448.1	212
448.2	70
448.3	36
448.4	142
448.5	69
448.6	82
448.7	136
448.8	180
448.9	139
449	91
449.1	118
449.2	135
449.3	38
449.4	136
449.5	51
449.6	1
449.7	67
449.8	143
449.9	150
450	197
450.1	159
450.2	44
450.3	145
450.4	101
450.5	266
450.6	136
450.7	110
450.8	66
450.9	25
451	192
451.1	99
451.2	185
451.3	203
451.4	203
451.5	54
451.6	194
451.7	99
451.8	220
451.9	149
452	88
452.1	160
452.2	106
452.3	131
452.4	266
452.5	44
452.6	59
452.7	125
452.8	312
452.9	202
453	207
453.1	203
453.2	208
453.3	20
453.4	243
453.5	68
453.6	134
453.7	127
453.8	166
453.9	191
454	104
454.1	175
454.2	114
454.3	213
454.4	100
454.5	150
454.6	354
454.7	180
454.8	222
454.9	215
455	257
455.1	160
455.2	189
455.3	266
455.4	318
455.5	142
455.6	144
455.7	125
455.8	219
455.9	249
456	149
456.1	149
456.2	270
456.3	177
456.4	406
456.5	335
456.6	188
456.7	289
456.8	321
456.9	155
457	322
457.1	332
457.2	193
457.3	279
457.4	240
457.5	324
457.6	305
457.7	377
457.8	417
457.9	338
458	462
458.1	430
458.2	500
458.3	531
458.4	671
458.5	732
458.6	770
458.7	998
458.8	1058
458.9	1385
459	1674
459.1	2028
459.2	2506
459.3	2304
459.4	2201
459.5	2043
459.6	2067
459.7	2349
459.8	3029
459.9	3788
460	4397
460.1	4080
460.2	3249
460.3	2577
460.4	2257
460.5	2058
460.6	2269
460.7	2553
460.8	2957
460.9	2837
461	2316
461.1	1687
461.2	1400
461.3	1037
461.4	1002
461.5	941
461.6	870
461.7	901
461.8	803
461.9	663
462	610
462.1	668
462.2	589
462.3	622
462.4	655
462.5	658
462.6	756
462.7	663
462.8	689
462.9	744
463	841
463.1	978
463.2	1101
463.3	1225
463.4	1375
463.5	1547
463.6	1658
463.7	1690
463.8	1780
463.9	1820
464	1739
464.1	1742
464.2	1653
464.3	1603
464.4	1480
464.5	1361
464.6	1528
464.7	1461
464.8	1647
464.9	1592
465	1519
465.1	1379
465.2	1297
465.3	1143
465.4	929
465.5	947
465.6	1037
465.7	1004
465.8	941
465.9	994
466	888
466.1	798
466.2	565
466.3	710
466.4	606
466.5	581
466.6	594
466.7	497
466.8	433
466.9	456
467	456
467.1	539
467.2	470
467.3	475
467.4	488
467.5	518
467.6	498
467.7	464
467.8	517
467.9	582
468	650
468.1	513
468.2	563
468.3	563
468.4	606
468.5	574
468.6	669
468.7	675
468.8	698
468.9	718
469	804
469.1	744
469.2	714
469.3	717
469.4	678
469.5	606
469.6	467
469.7	557
469.8	475
469.9	406
470	397
470.1	358
470.2	319
470.3	405
470.4	342
470.5	394
470.6	310
470.7	348
470.8	467
470.9	373
471	356
471.1	590
471.2	755
471.3	658
471.4	746
471.5	561
471.6	544
471.7	639
471.8	675
471.9	1008
472	1324
472.1	1658
472.2	1971
472.3	1851
472.4	1541
472.5	1072
472.6	973
472.7	721
472.8	619
472.9	448
473	522
473.1	496
473.2	536
473.3	353
473.4	427
473.5	339
473.6	290
473.7	401
473.8	323
473.9	355
474	440
474.1	450
474.2	389
474.3	374
474.4	325
474.5	346
474.6	348
474.7	317
474.8	361
474.9	426
475	421
475.1	350
475.2	504
475.3	534
475.4	577
475.5	652
475.6	645
475.7	590
475.8	708
475.9	599
476	505
476.1	463
476.2	453
476.3	318
476.4	301
476.5	455
476.6	413
476.7	290
476.8	313
476.9	220
477	316
477.1	255
477.2	185
477.3	310
477.4	303
477.5	223
477.6	260
477.7	236
477.8	180
477.9	239
478	281
478.1	271
478.2	299
478.3	233
478.4	180
478.5	231
478.6	224
478.7	139
478.8	164
478.9	63
479	111
479.1	95
479.2	83
479.3	173
479.4	77
479.5	65
479.6	175
479.7	175
479.8	90
479.9	66
480	215
480.1	152
480.2	56
480.3	129
480.4	37
480.5	154
480.6	193
480.7	142
480.8	199
480.9	207
481	78
481.1	193
481.2	157
481.3	189
481.4	260
481.5	170
481.6	209
481.7	188
481.8	69
481.9	111
482	1
482.1	80
482.2	229
482.3	144
482.4	103
482.5	1
482.6	99
482.7	1
482.8	85
482.9	175
483	21
483.1	69
483.2	1
483.3	75
483.4	32
483.5	1
483.6	91
483.7	98
483.8	31
483.9	1
484	24
484.1	42
484.2	91
484.3	137
484.4	128
484.5	167
484.6	150
484.7	71
484.8	190
484.9	176
485	196
485.1	94
485.2	336
485.3	290
485.4	393
485.5	502
485.6	677
485.7	660
485.8	803
485.9	536
486	564
486.1	288
486.2	313
486.3	468
486.4	279
486.5	246
486.6	278
486.7	183
486.8	142
486.9	79
487	1
487.1	133
487.2	78
487.3	86
487.4	127
487.5	145
487.6	1
487.7	68
487.8	90
487.9	178
488	159
488.1	162
488.2	99
488.3	82
488.4	37
488.5	1
488.6	18
488.7	1
488.8	65
488.9	27
489	80
489.1	1
489.2	74
489.3	98
489.4	1
489.5	12
489.6	1
489.7	107
489.8	168
489.9	57
490	87
490.1	60
490.2	58
490.3	93
490.4	86
490.5	108
490.6	94
490.7	118
490.8	92
490.9	78
491	52
491.1	11
491.2	45
491.3	41
491.4	1
491.5	112
491.6	61
491.7	1
491.8	40
491.9	77
492	5
492.1	5
492.2	1
492.3	30
492.4	52
492.5	1
492.6	84
492.7	20
492.8	1
492.9	52
493	1
493.1	40
493.2	36
493.3	90
493.4	124
493.5	93
493.6	91
493.7	140
493.8	21
493.9	65
494	56
494.1	81
494.2	108
494.3	1
494.4	1
494.5	29
494.6	61
494.7	1
494.8	52
494.9	1
495	67
495.1	147
495.2	32
495.3	68
495.4	11
495.5	62
495.6	1
495.7	1
495.8	148
495.9	32
496	93
496.1	71
496.2	67
496.3	101
496.4	29
496.5	109
496.6	8
496.7	16
496.8	1
496.9	87
497	46
497.1	44
497.2	64
497.3	49
497.4	72
497.5	43
497.6	128
497.7	75
497.8	134
497.9	59
498	14
498.1	1
498.2	89
498.3	126
498.4	54
498.5	69
498.6	1
498.7	38
498.8	38
498.9	80
499	1
499.1	49
499.2	35
499.3	108
499.4	96
499.5	72
499.6	82
499.7	165
499.8	100
499.9	122
500	127
