# Optical absorption spectrum of Program fragment delivered error ``Can't call method "sample_" on an undefined value at abs.template line 1.'':YLF (Tm:LiYF4)
# assuming unity concentration per meter.  This data was part of the NASA 
# Laser Spectra Database found on the web until December of 2005 which
# was created by Pat Cross working at NASA Langley Research Center, Internal
# Operations Group, Aerospace Electronics Systems Division, Remote Sensing.
#
# The spectra was collected by NYC on  1 January 1980 and was 
# annotated on 12 December 1989.  The sample name was "" was a 4.9000
# long piece of :.   
# The incident light had unknown polarization.
#
# Spectra were recorded from 1100 to 1300nm
# every 1nm at room temperature.
#
# FILE NAME ON PE-3600 = 004TYLF9.SP ON PC = 004TYLF9.SP NO_POINTS = 201. pts DATA_INTV = .001000 æm MIN_LAMBDA = 1.100000 æm MIN_DATA = 0.000000 MAX_LAMBDA = 1.300000 æm MAX_DATA = 7464.000 SCANSPEED = .01500000 æm/min SLITWIDTH= .00020 æmITA = 0. RESP = 2.000 sec ISMS = 0. DATE=YY/MM/DD INST = 509. ? = 0.
#
##Wavelength (nm)	Absorbance (/meter) 
1100	1
1101	413
1102	130
1103	506
1104	81
1105	1
1106	119
1107	7
1108	229
1109	1
1110	1
1111	1
1112	163
1113	269
1114	227
1115	100
1116	1
1117	135
1118	36
1119	1
1120	243
1121	1
1122	241
1123	519
1124	1
1125	363
1126	253
1127	1
1128	550
1129	1
1130	352
1131	224
1132	147
1133	622
1134	238
1135	293
1136	655
1137	431
1138	406
1139	446
1140	285
1141	320
1142	509
1143	236
1144	504
1145	558
1146	458
1147	645
1148	414
1149	436
1150	712
1151	445
1152	565
1153	381
1154	403
1155	889
1156	490
1157	802
1158	793
1159	361
1160	789
1161	881
1162	800
1163	1016
1164	559
1165	901
1166	940
1167	1163
1168	1097
1169	1183
1170	1269
1171	1458
1172	1817
1173	1586
1174	1492
1175	1524
1176	1666
1177	2092
1178	2168
1179	2559
1180	3191
1181	3470
1182	3775
1183	3193
1184	2506
1185	2410
1186	1616
1187	1945
1188	1642
1189	1257
1190	1430
1191	1022
1192	1573
1193	1162
1194	1423
1195	1407
1196	1291
1197	1619
1198	1360
1199	1608
1200	1690
1201	1640
1202	1863
1203	1906
1204	2242
1205	2838
1206	3400
1207	4181
1208	4965
1209	5995
1210	6476
1211	7031
1212	7151
1213	7075
1214	7464
1215	7188
1216	6963
1217	7285
1218	6361
1219	6554
1220	6230
1221	5663
1222	5590
1223	4573
1224	4155
1225	3901
1226	3116
1227	2891
1228	2401
1229	2188
1230	2369
1231	1982
1232	1894
1233	1706
1234	1546
1235	1670
1236	1734
1237	1725
1238	1374
1239	1222
1240	1079
1241	1149
1242	1220
1243	922
1244	743
1245	667
1246	607
1247	1141
1248	542
1249	614
1250	683
1251	489
1252	977
1253	522
1254	469
1255	627
1256	186
1257	552
1258	558
1259	308
1260	710
1261	368
1262	301
1263	650
1264	275
1265	563
1266	397
1267	15
1268	526
1269	253
1270	160
1271	224
1272	196
1273	141
1274	86
1275	1
1276	141
1277	194
1278	130
1279	112
1280	256
1281	143
1282	1
1283	84
1284	1
1285	1
1286	31
1287	1
1288	150
1289	1
1290	34
1291	142
1292	98
1293	296
1294	45
1295	1
1296	153
1297	14
1298	69
1299	45
1300	1
