  11100 12  1 ##YSAG9.SP PUC001 BMW  .000 # S1 060593 00.00  02        
  PROGRAM PE-FILECONVERT MAC VERSION 1.0                               
  USER BMW DATE & TIME  1993 06 12 23.52 29.00   10.5000    295K U     
 AU1 TM  50     0     0 YSAG              .440000 -  .500000 .0001     
 FILE NAME ON IBM-PC  = YSAG9.SP          ON MAC= P12063.02            
 NO_POINTS  =   601.    pts   DATA_INTV =  .00010 nm                   
 MIN_LAMBDA =   .440000 _m     MIN_DATA =    .33810                    
 MAX_LAMBDA =   .500000 _m     MAX_DATA =    .40060                    
 SCANSPEED  = 15.000000 nm/min SLITWIDTH=   .20000 nmITA =   0.        
       RESP =    .500  sec        ISMS =   0.       DATE=93/05/06      
       INST = 509.                    ? =   0.                         
 3:52:29  12-06-1993                                                   
  This spectra is part of Database LASERS
 Database LASERS was created by Pat Cross working 
 at NASA Langley Research Center, Internal Operations Group,
 Aerospace Electronics Systems Division, Remote Sensing 
 Technology Branch. phone:(757)864-1633   fax:(757)864-7894 
     e-mail p.l.cross@larc.nasa.gov 
     homepage http://aesd.larc.nasa.gov/laser/dbmain.htm
  EOH.(1X,F11.4)                                                       
   601.         
    268.2193    
     48.8931    
    280.0677    
     41.4561    
    345.1192    
    119.9632    
    298.9780    
    218.0992    
    243.2739    
    148.1924    
    154.0607    
    164.7401    
    189.8454    
    229.4614    
      0.0001    
    145.0198    
    319.7773    
    180.8150    
    167.4635    
     91.7176    
    304.8434    
    170.6937    
    365.3418    
     67.1844    
    198.0254    
     30.9912    
    151.9972    
    148.2553    
     72.4488    
    246.9689    
    199.7118    
    152.5489    
    129.5363    
    256.2079    
    233.0803    
     94.2412    
     52.0691    
     67.5182    
     82.9890    
    112.9187    
     85.1009    
    240.7442    
    183.7047    
    131.6385    
     36.4357    
    332.7265    
    163.8411    
    150.4088    
    161.1548    
     89.7943    
    110.1471    
    227.4139    
    194.5325    
     84.3836    
    104.7420    
    207.4932    
    135.8689    
    219.3877    
    123.4938    
    250.7670    
    140.1550    
    121.8530    
    195.6715    
    211.3363    
    154.1386    
    126.1165    
    132.0341    
    215.7003    
    226.5315    
    101.3199    
    150.8700    
    210.3169    
    172.4636    
    163.8148    
    174.6199    
    127.0972    
    191.3889    
    158.3945    
     86.6337    
    180.0264    
    161.6242    
    157.8290    
     81.1623    
    252.7469    
     83.2718    
    113.4715    
    143.7272    
    242.4574    
     53.5388    
    151.8210    
    289.8946    
    261.5571    
    169.6799    
    175.6477    
    318.9311    
    280.7037    
    115.4531    
    184.8614    
    122.4632    
    221.3127    
    124.5989    
    189.2010    
    249.1348    
    215.8760    
    216.9635    
    188.6391    
    263.3666    
    132.0798    
    270.5038    
    188.0761    
    267.7863    
    352.8180    
    235.5434    
    350.1223    
    178.7807    
    106.4065    
    122.1432    
     93.8692    
    256.9110    
    243.2302    
    155.8269    
    147.0906    
    143.2627    
    198.3719    
    125.7977    
    230.1038    
    226.2707    
    153.5457    
    184.1231    
    199.9792    
    275.1153    
    375.4339    
    297.1409    
    268.5440    
    274.5981    
    280.6611    
    371.1535    
    307.6735    
    303.8282    
    136.9506    
    108.5188    
    203.1908    
    140.1653    
    304.4477    
    221.2874    
    227.3335    
    258.1539    
    284.0661    
    230.6255    
    271.3964    
    242.7334    
    258.7143    
    284.6572    
    275.8306    
    212.4304    
    292.9726    
    289.1107    
    290.2231    
    296.3152    
    382.2947    
    303.5283    
    374.5655    
    300.7818    
    286.9426    
    283.0693    
    304.1304    
    410.3310    
    286.4102    
    387.5404    
    258.7247    
    205.1095    
    375.9063    
    402.1405    
    403.2849    
    384.3369    
    460.9392    
    472.1819    
    574.5259    
    667.2695    
    914.8579    
    936.8265    
   1057.5030    
   1268.3082    
   1497.5530    
   1584.5070    
   1671.8963    
   1738.1010    
   1799.1494    
   1964.0360    
   1916.4392    
   1727.9291    
   1783.5684    
   1888.3944    
   1635.3592    
   1712.3430    
   1724.6640    
   1618.2790    
   1743.9173    
   1974.3340    
   2074.8930    
   2187.1142    
   2311.2172    
   2402.4733    
   2471.6674    
   2327.4362    
   2345.9060    
   2258.1992    
   2076.7370    
   1946.2290    
   1789.3193    
   1525.9573    
   1372.3092    
   1203.9814    
   1152.5991    
   1033.1460    
    805.4122    
    729.1855    
    642.9634    
    603.1480    
    645.3862    
    493.1085    
    550.4349    
    403.9077    
    379.6932    
    370.6986    
    478.5794    
    576.8581    
    486.0154    
    476.9786    
    478.1521    
    556.0053    
    557.1989    
    717.9562    
    765.7762    
    834.5426    
    804.6081    
    883.9836    
    989.9470    
    917.8958    
   1108.4560    
   1162.7213    
   1032.0050    
    985.9866    
   1055.7260    
    936.1171    
    843.2725    
    860.2037    
    798.8864    
    883.6614    
    827.4649    
    729.8378    
    694.7630    
    701.1744    
    733.5506    
    802.4812    
    642.6887    
    664.6135    
    722.9179    
    687.7994    
    611.3351    
    540.2941    
    526.0323    
    583.9440    
    590.3077    
    514.1351    
    597.8895    
    501.0515    
    615.8212    
    736.5513    
    628.6130    
    744.2565    
    667.3811    
    653.0146    
    519.6213    
    572.4819    
    615.1304    
    512.8485    
    612.3610    
    603.1971    
    439.0825    
    517.5797    
    503.2650    
    463.1737    
    448.8871    
    444.8936    
    415.1737    
    344.4325    
    427.7803    
    275.0450    
    342.7136    
    282.3963    
    252.8470    
    310.2363    
    234.6503    
    235.7606    
    206.2549    
    284.0038    
    285.1263    
    153.5159    
    205.5605    
    288.4929    
    238.4115    
    331.8138    
    389.5856    
    457.9072    
    474.6144    
    475.7889    
    497.7135    
    608.2286    
    719.4324    
    600.2021    
    617.0887    
    707.3995    
    629.9812    
    657.3893    
    779.5834    
    701.8436    
    572.0934    
    588.9715    
    315.0650    
    331.6613    
    343.1285    
    370.1047    
    407.5042    
    269.1888    
    234.3089    
    307.5131    
    128.8711    
    253.0817    
    131.0418    
    209.0187    
    230.6921    
    154.7841    
    263.8214    
    141.5858    
    127.3040    
    118.1444    
     37.4742    
    120.3071    
     80.4486    
     15.1581    
    113.3059    
    119.5108    
    146.2462    
    173.0319    
     30.6410    
    190.6607    
     58.3144    
     59.3826    
      0.0001    
     41.0454    
    139.5420    
    135.4858    
    121.1514    
     96.5518    
    149.0380    
     67.9181    
     43.3609    
    111.1349    
    236.0434    
     97.8755    
      0.0001    
      0.0001    
      0.0001    
     25.1618    
      0.0001    
      0.0001    
     59.1400    
      0.0001    
      0.0001    
    108.6638    
      0.0001    
      0.0001    
     75.8362    
     30.6216    
      6.0091    
      0.0001    
      0.0001    
     24.5889    
      0.0001    
      0.0001    
      0.0001    
     23.6840    
      0.0001    
      0.0001    
      0.0001    
      0.0001    
      0.0001    
      0.0001    
      0.0001    
      0.0001    
      0.0001    
      0.0001    
      0.0001    
      0.0001    
      0.0001    
      0.0001    
      0.0001    
      0.0001    
      0.0001    
      0.0001    
      0.0001    
      0.0001    
      0.0001    
      0.0001    
      0.0001    
      0.0001    
      0.0001    
      0.0001    
      0.0001    
      0.0001    
      0.0001    
      0.0001    
      0.0001    
      0.0001    
      0.0001    
      0.0001    
      0.0001    
      0.0001    
      0.0001    
      0.0001    
      0.0001    
      0.0001    
      0.0001    
      0.0001    
      0.0001    
      0.0001    
      0.0001    
      0.0001    
      0.0001    
      0.0001    
      0.0001    
      0.0001    
      0.0001    
      0.0001    
      0.0001    
      0.0001    
      0.0001    
      0.0001    
      0.0001    
      0.0001    
      0.0001    
      0.0001    
      0.0001    
      0.0001    
      0.0001    
      0.0001    
      0.0001    
      0.0001    
      0.0001    
      0.0001    
      0.0001    
      0.0001    
      0.0001    
      0.0001    
      0.0001    
      0.0001    
      0.0001    
      0.0001    
      0.0001    
      0.0001    
      0.0001    
      0.0001    
      0.0001    
      0.0001    
      0.0001    
      0.0001    
      0.0001    
      0.0001    
      0.0001    
      0.0001    
      0.0001    
      0.0001    
      0.0001    
      0.0001    
      0.0001    
      0.0001    
      0.0001    
      0.0001    
      0.0001    
      0.0001    
      0.0001    
      0.0001    
      0.0001    
      0.0001    
      0.0001    
      0.0001    
      0.0001    
      0.0001    
      0.0001    
      0.0001    
      0.0001    
      0.0001    
      0.0001    
      0.0001    
      0.0001    
      0.0001    
      0.0001    
      0.0001    
      0.0001    
      0.0001    
      0.0001    
      0.0001    
      0.0001    
      0.0001    
      0.0001    
      0.0001    
      0.0001    
      0.0001    
      0.0001    
      0.0001    
      0.0001    
      0.0001    
      0.0001    
      0.0001    
      0.0001    
      0.0001    
      0.0001    
      0.0001    
      0.0001    
      0.0001    
      0.0001    
      0.0001    
      0.0001    
      0.0001    
      0.0001    
      0.0001    
      0.0001    
      0.0001    
      0.0001    
      0.0001    
      0.0001    
      0.0001    
      0.0001    
      0.0001    
      0.0001    
      0.0001    
      0.0001    
      0.0001    
      0.0001    
      0.0001    
      0.0001    
      0.0001    
      0.0001    
      0.0001    
      0.0001    
      0.0001    
      0.0001    
      0.0001    
      0.0001    
      0.0001    
      0.0001    
      0.0001    
      0.0001    
      0.0001    
      0.0001    
      0.0001    
      0.0001    
      0.0001    
      0.0001    
      0.0001    
      0.0001    
      0.0001    
      0.0001    
      0.0001    
      0.0001    
      0.0001    
      0.0001    
      0.0001    
      0.0001    
      0.0001    
      0.0001    
      0.0001    
      0.0001    
      0.0001    
      0.0001    
      0.0001    
      0.0001    
      0.0001    
      0.0001    
      0.0001    
      0.0001    
      0.0001    
      0.0001    
      0.0001    
      0.0001    
      0.0001    
      0.0001    
      0.0001    
      0.0001    
      0.0001    
      0.0001    
      0.0001    
      0.0001    
      0.0001    
      0.0001    
      0.0001    
      0.0001    
      0.0001    
      0.0001    
      0.0001    
