# Optical absorption spectrum of Program fragment delivered error ``Can't call method "sample_" on an undefined value at abs.template line 1.'':YSAG (Tm:Y3Sc2Al3O12)
# assuming unity concentration per meter.  This data was part of the NASA 
# Laser Spectra Database found on the web until December of 2005 which
# was created by Pat Cross working at NASA Langley Research Center, Internal
# Operations Group, Aerospace Electronics Systems Division, Remote Sensing.
#
# The spectra was collected by BMW on  5 June 1993 and was 
# annotated on 12 June 1993.  The sample name was "" was a 10.5000
# long piece of :.   
# The incident light had unknown polarization.
#
# Spectra were recorded from 1050 to 1350nm
# every 0.2nm at room temperature.
#
# FILE NAME ON IBM-PC = YSAG12.SP ON MAC= P12063.05 NO_POINTS = 1501. pts DATA_INTV = .00020 nm MIN_LAMBDA = 1.050000 _m MIN_DATA = .56970 MAX_LAMBDA = 1.350000 _m MAX_DATA = .78560 SCANSPEED = 15.000000 nm/min SLITWIDTH= .20000 nmITA = 0. RESP = .500 sec ISMS = 0. DATE=93/05/06 INST = 509. ? = 0. 3:58:53 12-06-1993.
#
##Wavelength (nm)	Absorbance (/meter) 
1050	1
1050.2	1
1050.4	1
1050.6	1
1050.8	82
1051	51
1051.2	1
1051.4	1
1051.6	66
1051.8	1
1052	7
1052.2	1
1052.4	10
1052.6	31
1052.8	22
1053	23
1053.2	74
1053.4	144
1053.6	20
1053.8	1
1054	62
1054.2	22
1054.4	1
1054.6	15
1054.8	1
1055	1
1055.2	12
1055.4	95
1055.6	78
1055.8	55
1056	5
1056.2	55
1056.4	73
1056.6	124
1056.8	1
1057	5
1057.2	25
1057.4	38
1057.6	29
1057.8	36
1058	73
1058.2	15
1058.4	81
1058.6	86
1058.8	52
1059	84
1059.2	12
1059.4	24
1059.6	34
1059.8	77
1060	5
1060.2	93
1060.4	76
1060.6	67
1060.8	90
1061	133
1061.2	1
1061.4	92
1061.6	86
1061.8	82
1062	76
1062.2	15
1062.4	68
1062.6	75
1062.8	66
1063	81
1063.2	66
1063.4	22
1063.6	64
1063.8	85
1064	76
1064.2	1
1064.4	133
1064.6	75
1064.8	25
1065	57
1065.2	153
1065.4	44
1065.6	54
1065.8	71
1066	27
1066.2	137
1066.4	44
1066.6	86
1066.8	25
1067	60
1067.2	213
1067.4	66
1067.6	64
1067.8	93
1068	19
1068.2	61
1068.4	76
1068.6	35
1068.8	28
1069	1
1069.2	102
1069.4	125
1069.6	92
1069.8	112
1070	111
1070.2	7
1070.4	25
1070.6	21
1070.8	36
1071	79
1071.2	18
1071.4	63
1071.6	27
1071.8	88
1072	3
1072.2	26
1072.4	36
1072.6	30
1072.8	69
1073	52
1073.2	1
1073.4	1
1073.6	11
1073.8	47
1074	41
1074.2	67
1074.4	74
1074.6	51
1074.8	4
1075	33
1075.2	1
1075.4	1
1075.6	1
1075.8	10
1076	52
1076.2	53
1076.4	1
1076.6	1
1076.8	77
1077	47
1077.2	29
1077.4	61
1077.6	1
1077.8	1
1078	1
1078.2	1
1078.4	90
1078.6	14
1078.8	32
1079	1
1079.2	1
1079.4	1
1079.6	33
1079.8	1
1080	1
1080.2	29
1080.4	18
1080.6	14
1080.8	1
1081	1
1081.2	56
1081.4	20
1081.6	9
1081.8	34
1082	1
1082.2	19
1082.4	1
1082.6	1
1082.8	1
1083	1
1083.2	11
1083.4	1
1083.6	89
1083.8	86
1084	47
1084.2	1
1084.4	1
1084.6	1
1084.8	1
1085	1
1085.2	1
1085.4	1
1085.6	1
1085.8	1
1086	36
1086.2	1
1086.4	18
1086.6	25
1086.8	1
1087	1
1087.2	1
1087.4	1
1087.6	1
1087.8	1
1088	1
1088.2	62
1088.4	50
1088.6	55
1088.8	86
1089	1
1089.2	1
1089.4	1
1089.6	1
1089.8	1
1090	1
1090.2	1
1090.4	50
1090.6	1
1090.8	46
1091	96
1091.2	1
1091.4	69
1091.6	7
1091.8	1
1092	133
1092.2	1
1092.4	1
1092.6	4
1092.8	1
1093	1
1093.2	162
1093.4	93
1093.6	28
1093.8	1
1094	1
1094.2	65
1094.4	27
1094.6	1
1094.8	1
1095	1
1095.2	20
1095.4	59
1095.6	1
1095.8	124
1096	77
1096.2	33
1096.4	112
1096.6	20
1096.8	51
1097	101
1097.2	9
1097.4	126
1097.6	117
1097.8	86
1098	144
1098.2	146
1098.4	83
1098.6	122
1098.8	110
1099	88
1099.2	33
1099.4	40
1099.6	71
1099.8	142
1100	160
1100.2	159
1100.4	112
1100.6	195
1100.8	169
1101	98
1101.2	194
1101.4	145
1101.6	154
1101.8	159
1102	279
1102.2	245
1102.4	182
1102.6	141
1102.8	201
1103	246
1103.2	146
1103.4	233
1103.6	203
1103.8	137
1104	187
1104.2	164
1104.4	230
1104.6	211
1104.8	183
1105	187
1105.2	264
1105.4	230
1105.6	278
1105.8	293
1106	227
1106.2	245
1106.4	257
1106.6	278
1106.8	269
1107	224
1107.2	366
1107.4	292
1107.6	264
1107.8	314
1108	308
1108.2	301
1108.4	290
1108.6	243
1108.8	279
1109	265
1109.2	272
1109.4	308
1109.6	291
1109.8	341
1110	400
1110.2	247
1110.4	471
1110.6	396
1110.8	414
1111	367
1111.2	461
1111.4	349
1111.6	369
1111.8	411
1112	435
1112.2	382
1112.4	354
1112.6	404
1112.8	422
1113	370
1113.2	436
1113.4	394
1113.6	315
1113.8	333
1114	334
1114.2	425
1114.4	405
1114.6	366
1114.8	446
1115	432
1115.2	517
1115.4	524
1115.6	482
1115.8	419
1116	431
1116.2	414
1116.4	543
1116.6	431
1116.8	408
1117	521
1117.2	541
1117.4	532
1117.6	479
1117.8	373
1118	401
1118.2	479
1118.4	502
1118.6	539
1118.8	478
1119	447
1119.2	465
1119.4	461
1119.6	425
1119.8	557
1120	520
1120.2	565
1120.4	567
1120.6	498
1120.8	554
1121	545
1121.2	576
1121.4	619
1121.6	620
1121.8	624
1122	612
1122.2	535
1122.4	588
1122.6	525
1122.8	605
1123	593
1123.2	619
1123.4	539
1123.6	576
1123.8	537
1124	631
1124.2	597
1124.4	418
1124.6	473
1124.8	646
1125	617
1125.2	559
1125.4	550
1125.6	644
1125.8	667
1126	614
1126.2	714
1126.4	721
1126.6	540
1126.8	722
1127	652
1127.2	681
1127.4	694
1127.6	638
1127.8	661
1128	791
1128.2	651
1128.4	767
1128.6	608
1128.8	566
1129	747
1129.2	774
1129.4	712
1129.6	695
1129.8	669
1130	723
1130.2	773
1130.4	636
1130.6	798
1130.8	751
1131	813
1131.2	842
1131.4	764
1131.6	809
1131.8	778
1132	697
1132.2	770
1132.4	736
1132.6	740
1132.8	756
1133	752
1133.2	702
1133.4	796
1133.6	683
1133.8	807
1134	817
1134.2	669
1134.4	763
1134.6	732
1134.8	736
1135	806
1135.2	780
1135.4	779
1135.6	857
1135.8	780
1136	819
1136.2	826
1136.4	730
1136.6	778
1136.8	823
1137	672
1137.2	774
1137.4	675
1137.6	720
1137.8	771
1138	849
1138.2	851
1138.4	718
1138.6	701
1138.8	751
1139	775
1139.2	638
1139.4	672
1139.6	636
1139.8	691
1140	772
1140.2	676
1140.4	797
1140.6	758
1140.8	713
1141	815
1141.2	831
1141.4	848
1141.6	771
1141.8	572
1142	706
1142.2	757
1142.4	701
1142.6	779
1142.8	759
1143	747
1143.2	860
1143.4	837
1143.6	686
1143.8	701
1144	687
1144.2	710
1144.4	690
1144.6	778
1144.8	785
1145	754
1145.2	761
1145.4	891
1145.6	773
1145.8	837
1146	808
1146.2	731
1146.4	872
1146.6	778
1146.8	785
1147	770
1147.2	747
1147.4	803
1147.6	887
1147.8	877
1148	934
1148.2	801
1148.4	836
1148.6	870
1148.8	839
1149	827
1149.2	864
1149.4	824
1149.6	796
1149.8	825
1150	900
1150.2	858
1150.4	917
1150.6	905
1150.8	1019
1151	933
1151.2	923
1151.4	889
1151.6	864
1151.8	824
1152	976
1152.2	890
1152.4	1029
1152.6	956
1152.8	928
1153	1009
1153.2	1002
1153.4	998
1153.6	915
1153.8	878
1154	1008
1154.2	1007
1154.4	943
1154.6	1043
1154.8	968
1155	1055
1155.2	1120
1155.4	1124
1155.6	1136
1155.8	1105
1156	1057
1156.2	1183
1156.4	1104
1156.6	1095
1156.8	1094
1157	1062
1157.2	1179
1157.4	1278
1157.6	1185
1157.8	1298
1158	1255
1158.2	1262
1158.4	1272
1158.6	1229
1158.8	1225
1159	1349
1159.2	1198
1159.4	1363
1159.6	1401
1159.8	1403
1160	1508
1160.2	1420
1160.4	1458
1160.6	1566
1160.8	1484
1161	1592
1161.2	1478
1161.4	1494
1161.6	1560
1161.8	1627
1162	1693
1162.2	1732
1162.4	1748
1162.6	1639
1162.8	1736
1163	1727
1163.2	1762
1163.4	1855
1163.6	1748
1163.8	1873
1164	1857
1164.2	1916
1164.4	1943
1164.6	1896
1164.8	2041
1165	2135
1165.2	2056
1165.4	2118
1165.6	2189
1165.8	2110
1166	2239
1166.2	2168
1166.4	2170
1166.6	2302
1166.8	2248
1167	2270
1167.2	2368
1167.4	2201
1167.6	2366
1167.8	2347
1168	2328
1168.2	2514
1168.4	2422
1168.6	2412
1168.8	2534
1169	2476
1169.2	2584
1169.4	2601
1169.6	2588
1169.8	2705
1170	2603
1170.2	2604
1170.4	2740
1170.6	2693
1170.8	2773
1171	2732
1171.2	2791
1171.4	2750
1171.6	2923
1171.8	2807
1172	2902
1172.2	2849
1172.4	2938
1172.6	2937
1172.8	2971
1173	2988
1173.2	2956
1173.4	3006
1173.6	3141
1173.8	3079
1174	3053
1174.2	3019
1174.4	3087
1174.6	3085
1174.8	3081
1175	3082
1175.2	3005
1175.4	3040
1175.6	2981
1175.8	3116
1176	3133
1176.2	3122
1176.4	3099
1176.6	3025
1176.8	2997
1177	3119
1177.2	3021
1177.4	3032
1177.6	2964
1177.8	2923
1178	2889
1178.2	2890
1178.4	2889
1178.6	2896
1178.8	2814
1179	2720
1179.2	2760
1179.4	2685
1179.6	2689
1179.8	2546
1180	2633
1180.2	2526
1180.4	2483
1180.6	2479
1180.8	2507
1181	2418
1181.2	2402
1181.4	2310
1181.6	2230
1181.8	2142
1182	2127
1182.2	2048
1182.4	2127
1182.6	2031
1182.8	1992
1183	1974
1183.2	1901
1183.4	1903
1183.6	1811
1183.8	1742
1184	1749
1184.2	1563
1184.4	1601
1184.6	1588
1184.8	1528
1185	1524
1185.2	1482
1185.4	1411
1185.6	1435
1185.8	1384
1186	1391
1186.2	1398
1186.4	1245
1186.6	1247
1186.8	1224
1187	1217
1187.2	1208
1187.4	1119
1187.6	1099
1187.8	1095
1188	1064
1188.2	1019
1188.4	1018
1188.6	998
1188.8	965
1189	947
1189.2	881
1189.4	910
1189.6	858
1189.8	902
1190	993
1190.2	828
1190.4	875
1190.6	809
1190.8	926
1191	879
1191.2	833
1191.4	807
1191.6	846
1191.8	819
1192	919
1192.2	782
1192.4	861
1192.6	889
1192.8	800
1193	839
1193.2	808
1193.4	834
1193.6	744
1193.8	685
1194	740
1194.2	829
1194.4	740
1194.6	875
1194.8	911
1195	897
1195.2	971
1195.4	908
1195.6	955
1195.8	954
1196	891
1196.2	1000
1196.4	1083
1196.6	1117
1196.8	1238
1197	1314
1197.2	1337
1197.4	1571
1197.6	1647
1197.8	1638
1198	1858
1198.2	1924
1198.4	2136
1198.6	2316
1198.8	2401
1199	2813
1199.2	3005
1199.4	3202
1199.6	3524
1199.8	3695
1200	3947
1200.2	4058
1200.4	4184
1200.6	4275
1200.8	4433
1201	4428
1201.2	4491
1201.4	4486
1201.6	4462
1201.8	4570
1202	4472
1202.2	4612
1202.4	4660
1202.6	4746
1202.8	4856
1203	4940
1203.2	5151
1203.4	5086
1203.6	4955
1203.8	5126
1204	5067
1204.2	4939
1204.4	4786
1204.6	4608
1204.8	4301
1205	4191
1205.2	4062
1205.4	3760
1205.6	3518
1205.8	3188
1206	3046
1206.2	3017
1206.4	2906
1206.6	2857
1206.8	2676
1207	2590
1207.2	2609
1207.4	2476
1207.6	2345
1207.8	2361
1208	2262
1208.2	2238
1208.4	2236
1208.6	2109
1208.8	2159
1209	2093
1209.2	2049
1209.4	2050
1209.6	2058
1209.8	2008
1210	1990
1210.2	1932
1210.4	1984
1210.6	1944
1210.8	1895
1211	1933
1211.2	1912
1211.4	1821
1211.6	1901
1211.8	1883
1212	1778
1212.2	1793
1212.4	1803
1212.6	1757
1212.8	1751
1213	1658
1213.2	1754
1213.4	1636
1213.6	1693
1213.8	1792
1214	1646
1214.2	1645
1214.4	1591
1214.6	1557
1214.8	1569
1215	1607
1215.2	1416
1215.4	1508
1215.6	1457
1215.8	1450
1216	1422
1216.2	1287
1216.4	1297
1216.6	1279
1216.8	1221
1217	1239
1217.2	1241
1217.4	1150
1217.6	1055
1217.8	1089
1218	1026
1218.2	985
1218.4	1018
1218.6	1001
1218.8	955
1219	977
1219.2	896
1219.4	1037
1219.6	820
1219.8	872
1220	818
1220.2	880
1220.4	721
1220.6	735
1220.8	811
1221	730
1221.2	771
1221.4	720
1221.6	711
1221.8	697
1222	701
1222.2	614
1222.4	586
1222.6	635
1222.8	616
1223	609
1223.2	533
1223.4	568
1223.6	617
1223.8	501
1224	492
1224.2	572
1224.4	485
1224.6	554
1224.8	532
1225	570
1225.2	569
1225.4	539
1225.6	520
1225.8	521
1226	512
1226.2	537
1226.4	492
1226.6	421
1226.8	436
1227	445
1227.2	426
1227.4	474
1227.6	406
1227.8	461
1228	528
1228.2	509
1228.4	430
1228.6	434
1228.8	386
1229	478
1229.2	359
1229.4	440
1229.6	457
1229.8	451
1230	473
1230.2	423
1230.4	492
1230.6	550
1230.8	502
1231	447
1231.2	456
1231.4	445
1231.6	444
1231.8	461
1232	403
1232.2	485
1232.4	458
1232.6	470
1232.8	474
1233	553
1233.2	461
1233.4	496
1233.6	408
1233.8	481
1234	380
1234.2	397
1234.4	434
1234.6	446
1234.8	504
1235	527
1235.2	477
1235.4	519
1235.6	555
1235.8	554
1236	508
1236.2	458
1236.4	442
1236.6	402
1236.8	414
1237	472
1237.2	461
1237.4	377
1237.6	474
1237.8	452
1238	408
1238.2	427
1238.4	429
1238.6	374
1238.8	375
1239	356
1239.2	365
1239.4	344
1239.6	356
1239.8	416
1240	461
1240.2	412
1240.4	441
1240.6	356
1240.8	342
1241	297
1241.2	324
1241.4	267
1241.6	312
1241.8	319
1242	279
1242.2	329
1242.4	400
1242.6	350
1242.8	283
1243	348
1243.2	340
1243.4	267
1243.6	378
1243.8	285
1244	234
1244.2	240
1244.4	280
1244.6	279
1244.8	380
1245	371
1245.2	337
1245.4	466
1245.6	381
1245.8	303
1246	274
1246.2	321
1246.4	354
1246.6	325
1246.8	283
1247	338
1247.2	316
1247.4	348
1247.6	327
1247.8	385
1248	353
1248.2	293
1248.4	254
1248.6	307
1248.8	313
1249	304
1249.2	240
1249.4	264
1249.6	314
1249.8	362
1250	310
1250.2	334
1250.4	358
1250.6	345
1250.8	323
1251	315
1251.2	255
1251.4	325
1251.6	233
1251.8	257
1252	256
1252.2	324
1252.4	320
1252.6	190
1252.8	282
1253	276
1253.2	179
1253.4	292
1253.6	276
1253.8	163
1254	226
1254.2	207
1254.4	269
1254.6	268
1254.8	244
1255	304
1255.2	252
1255.4	322
1255.6	185
1255.8	206
1256	226
1256.2	285
1256.4	158
1256.6	112
1256.8	179
1257	120
1257.2	217
1257.4	188
1257.6	192
1257.8	221
1258	198
1258.2	104
1258.4	191
1258.6	134
1258.8	98
1259	110
1259.2	141
1259.4	173
1259.6	185
1259.8	174
1260	145
1260.2	109
1260.4	181
1260.6	132
1260.8	166
1261	122
1261.2	114
1261.4	65
1261.6	72
1261.8	146
1262	145
1262.2	61
1262.4	53
1262.6	84
1262.8	41
1263	65
1263.2	114
1263.4	53
1263.6	94
1263.8	76
1264	1
1264.2	84
1264.4	160
1264.6	67
1264.8	91
1265	65
1265.2	91
1265.4	40
1265.6	1
1265.8	28
1266	47
1266.2	109
1266.4	93
1266.6	27
1266.8	14
1267	120
1267.2	54
1267.4	58
1267.6	74
1267.8	73
1268	132
1268.2	91
1268.4	21
1268.6	99
1268.8	29
1269	1
1269.2	101
1269.4	38
1269.6	17
1269.8	66
1270	20
1270.2	44
1270.4	48
1270.6	10
1270.8	56
1271	20
1271.2	52
1271.4	51
1271.6	32
1271.8	11
1272	33
1272.2	9
1272.4	1
1272.6	42
1272.8	1
1273	38
1273.2	14
1273.4	28
1273.6	62
1273.8	11
1274	3
1274.2	2
1274.4	1
1274.6	1
1274.8	14
1275	11
1275.2	1
1275.4	1
1275.6	25
1275.8	7
1276	28
1276.2	1
1276.4	1
1276.6	1
1276.8	24
1277	1
1277.2	1
1277.4	1
1277.6	1
1277.8	1
1278	60
1278.2	1
1278.4	41
1278.6	1
1278.8	1
1279	1
1279.2	1
1279.4	1
1279.6	15
1279.8	1
1280	1
1280.2	1
1280.4	1
1280.6	1
1280.8	1
1281	1
1281.2	40
1281.4	1
1281.6	35
1281.8	1
1282	1
1282.2	1
1282.4	1
1282.6	1
1282.8	12
1283	11
1283.2	1
1283.4	16
1283.6	1
1283.8	42
1284	1
1284.2	1
1284.4	1
1284.6	1
1284.8	1
1285	1
1285.2	1
1285.4	1
1285.6	16
1285.8	12
1286	56
1286.2	52
1286.4	1
1286.6	1
1286.8	1
1287	41
1287.2	8
1287.4	1
1287.6	30
1287.8	5
1288	16
1288.2	1
1288.4	39
1288.6	26
1288.8	17
1289	1
1289.2	1
1289.4	1
1289.6	1
1289.8	1
1290	1
1290.2	38
1290.4	2
1290.6	1
1290.8	17
1291	2
1291.2	3
1291.4	32
1291.6	18
1291.8	40
1292	1
1292.2	1
1292.4	1
1292.6	1
1292.8	25
1293	46
1293.2	57
1293.4	12
1293.6	21
1293.8	27
1294	34
1294.2	25
1294.4	1
1294.6	1
1294.8	1
1295	1
1295.2	1
1295.4	37
1295.6	26
1295.8	27
1296	41
1296.2	1
1296.4	1
1296.6	1
1296.8	1
1297	1
1297.2	1
1297.4	1
1297.6	61
1297.8	32
1298	1
1298.2	35
1298.4	1
1298.6	83
1298.8	5
1299	1
1299.2	1
1299.4	1
1299.6	1
1299.8	1
1300	1
1300.2	55
1300.4	27
1300.6	14
1300.8	67
1301	39
1301.2	80
1301.4	74
1301.6	1
1301.8	1
1302	1
1302.2	1
1302.4	1
1302.6	31
1302.8	6
1303	24
1303.2	28
1303.4	57
1303.6	44
1303.8	1
1304	17
1304.2	16
1304.4	32
1304.6	1
1304.8	1
1305	1
1305.2	31
1305.4	10
1305.6	56
1305.8	57
1306	54
1306.2	55
1306.4	64
1306.6	63
1306.8	1
1307	1
1307.2	21
1307.4	1
1307.6	1
1307.8	89
1308	7
1308.2	43
1308.4	20
1308.6	73
1308.8	67
1309	22
1309.2	1
1309.4	13
1309.6	29
1309.8	1
1310	69
1310.2	1
1310.4	84
1310.6	51
1310.8	82
1311	103
1311.2	36
1311.4	84
1311.6	44
1311.8	14
1312	47
1312.2	115
1312.4	35
1312.6	71
1312.8	87
1313	66
1313.2	97
1313.4	77
1313.6	76
1313.8	23
1314	49
1314.2	44
1314.4	40
1314.6	54
1314.8	19
1315	23
1315.2	78
1315.4	43
1315.6	5
1315.8	92
1316	150
1316.2	151
1316.4	106
1316.6	42
1316.8	1
1317	81
1317.2	71
1317.4	60
1317.6	88
1317.8	166
1318	64
1318.2	107
1318.4	124
1318.6	150
1318.8	109
1319	69
1319.2	27
1319.4	136
1319.6	27
1319.8	77
1320	74
1320.2	95
1320.4	60
1320.6	81
1320.8	158
1321	150
1321.2	152
1321.4	45
1321.6	152
1321.8	176
1322	192
1322.2	103
1322.4	119
1322.6	189
1322.8	134
1323	130
1323.2	142
1323.4	31
1323.6	88
1323.8	92
1324	123
1324.2	117
1324.4	124
1324.6	130
1324.8	127
1325	165
1325.2	107
1325.4	126
1325.6	81
1325.8	173
1326	94
1326.2	154
1326.4	200
1326.6	199
1326.8	63
1327	184
1327.2	171
1327.4	121
1327.6	128
1327.8	78
1328	135
1328.2	147
1328.4	109
1328.6	238
1328.8	217
1329	192
1329.2	178
1329.4	133
1329.6	115
1329.8	149
1330	55
1330.2	69
1330.4	187
1330.6	115
1330.8	185
1331	150
1331.2	134
1331.4	239
1331.6	157
1331.8	215
1332	233
1332.2	220
1332.4	182
1332.6	154
1332.8	190
1333	223
1333.2	93
1333.4	129
1333.6	245
1333.8	136
1334	275
1334.2	166
1334.4	212
1334.6	201
1334.8	202
1335	214
1335.2	132
1335.4	129
1335.6	162
1335.8	117
1336	128
1336.2	230
1336.4	224
1336.6	189
1336.8	345
1337	218
1337.2	174
1337.4	268
1337.6	247
1337.8	112
1338	101
1338.2	181
1338.4	236
1338.6	191
1338.8	171
1339	265
1339.2	181
1339.4	207
1339.6	277
1339.8	141
1340	267
1340.2	262
1340.4	131
1340.6	162
1340.8	149
1341	184
1341.2	213
1341.4	168
1341.6	257
1341.8	232
1342	204
1342.2	337
1342.4	187
1342.6	181
1342.8	207
1343	206
1343.2	166
1343.4	243
1343.6	137
1343.8	219
1344	277
1344.2	203
1344.4	297
1344.6	184
1344.8	224
1345	196
1345.2	234
1345.4	268
1345.6	193
1345.8	166
1346	265
1346.2	247
1346.4	221
1346.6	267
1346.8	212
1347	314
1347.2	271
1347.4	185
1347.6	223
1347.8	209
1348	279
1348.2	181
1348.4	119
1348.6	247
1348.8	241
1349	228
1349.2	271
1349.4	250
1349.6	169
1349.8	332
1350	318
